#  E (eV)   dos(E)     Int dos(E) EFermi =   10.744 eV
  -6.475  0.0000E+00  0.0000E+00
  -6.465  0.4054E-03  0.1351E-05
  -6.455  0.1621E-02  0.1081E-04
  -6.445  0.3648E-02  0.3648E-04
  -6.435  0.6486E-02  0.8647E-04
  -6.425  0.1013E-01  0.1689E-03
  -6.415  0.1459E-01  0.2919E-03
  -6.405  0.1986E-01  0.4635E-03
  -6.395  0.2594E-01  0.6918E-03
  -6.385  0.3283E-01  0.9850E-03
  -6.375  0.4054E-01  0.1351E-02
  -6.365  0.4905E-01  0.1798E-02
  -6.355  0.5837E-01  0.2335E-02
  -6.345  0.6850E-01  0.2969E-02
  -6.335  0.7945E-01  0.3708E-02
  -6.325  0.9120E-01  0.4560E-02
  -6.315  0.1038E+00  0.5534E-02
  -6.305  0.1171E+00  0.6638E-02
  -6.295  0.1313E+00  0.7880E-02
  -6.285  0.1463E+00  0.9268E-02
  -6.275  0.1621E+00  0.1081E-01
  -6.265  0.1788E+00  0.1251E-01
  -6.255  0.1962E+00  0.1439E-01
  -6.245  0.2144E+00  0.1644E-01
  -6.235  0.2335E+00  0.1868E-01
  -6.225  0.2533E+00  0.2111E-01
  -6.215  0.2740E+00  0.2375E-01
  -6.205  0.2955E+00  0.2660E-01
  -6.195  0.3178E+00  0.2966E-01
  -6.185  0.3409E+00  0.3295E-01
  -6.175  0.3648E+00  0.3648E-01
  -6.165  0.3895E+00  0.4025E-01
  -6.155  0.4151E+00  0.4428E-01
  -6.145  0.4414E+00  0.4856E-01
  -6.135  0.4686E+00  0.5311E-01
  -6.125  0.4966E+00  0.5793E-01
  -6.115  0.5253E+00  0.6304E-01
  -6.105  0.5549E+00  0.6844E-01
  -6.095  0.5853E+00  0.7414E-01
  -6.085  0.6165E+00  0.8015E-01
  -6.075  0.6486E+00  0.8647E-01
  -6.065  0.6814E+00  0.9312E-01
  -6.055  0.7150E+00  0.1001E+00
  -6.045  0.7495E+00  0.1074E+00
  -6.035  0.7848E+00  0.1151E+00
  -6.025  0.8208E+00  0.1231E+00
  -6.015  0.8577E+00  0.1315E+00
  -6.005  0.9313E+00  0.1404E+00
  -5.995  0.1045E+01  0.1503E+00
  -5.985  0.1154E+01  0.1613E+00
  -5.975  0.1258E+01  0.1733E+00
  -5.965  0.1357E+01  0.1864E+00
  -5.955  0.1451E+01  0.2004E+00
  -5.945  0.1543E+01  0.2154E+00
  -5.935  0.1639E+01  0.2313E+00
  -5.925  0.1740E+01  0.2482E+00
  -5.915  0.1845E+01  0.2661E+00
  -5.905  0.1954E+01  0.2851E+00
  -5.895  0.2068E+01  0.3052E+00
  -5.885  0.2186E+01  0.3265E+00
  -5.875  0.2309E+01  0.3490E+00
  -5.865  0.2436E+01  0.3727E+00
  -5.855  0.2568E+01  0.3977E+00
  -5.845  0.2703E+01  0.4241E+00
  -5.835  0.2844E+01  0.4518E+00
  -5.825  0.2988E+01  0.4809E+00
  -5.815  0.3137E+01  0.5116E+00
  -5.805  0.3291E+01  0.5437E+00
  -5.795  0.3448E+01  0.5774E+00
  -5.785  0.3611E+01  0.6127E+00
  -5.775  0.3777E+01  0.6496E+00
  -5.765  0.3948E+01  0.6882E+00
  -5.755  0.4123E+01  0.7286E+00
  -5.745  0.4303E+01  0.7707E+00
  -5.735  0.4487E+01  0.8147E+00
  -5.725  0.4676E+01  0.8605E+00
  -5.715  0.4869E+01  0.9082E+00
  -5.705  0.5066E+01  0.9579E+00
  -5.695  0.5267E+01  0.1010E+01
  -5.685  0.5649E+01  0.1064E+01
  -5.675  0.6434E+01  0.1124E+01
  -5.665  0.7309E+01  0.1193E+01
  -5.655  0.8274E+01  0.1270E+01
  -5.645  0.9445E+01  0.1358E+01
  -5.635  0.1238E+02  0.1466E+01
  -5.625  0.1437E+02  0.1606E+01
  -5.615  0.1458E+02  0.1751E+01
  -5.605  0.1475E+02  0.1897E+01
  -5.595  0.1488E+02  0.2045E+01
  -5.585  0.1496E+02  0.2195E+01
  -5.575  0.1501E+02  0.2345E+01
  -5.565  0.1501E+02  0.2495E+01
  -5.555  0.1497E+02  0.2645E+01
  -5.545  0.1489E+02  0.2794E+01
  -5.535  0.1600E+02  0.2946E+01
  -5.525  0.1933E+02  0.3121E+01
  -5.515  0.3943E+02  0.3369E+01
  -5.505  0.3271E+02  0.3731E+01
  -5.495  0.7701E+01  0.3990E+01
  -5.485  0.0000E+00  0.4000E+01
  -5.475  0.0000E+00  0.4000E+01
  -5.465  0.0000E+00  0.4000E+01
  -5.455  0.0000E+00  0.4000E+01
  -5.445  0.0000E+00  0.4000E+01
  -5.435  0.0000E+00  0.4000E+01
  -5.425  0.0000E+00  0.4000E+01
  -5.415  0.0000E+00  0.4000E+01
  -5.405  0.0000E+00  0.4000E+01
  -5.395  0.0000E+00  0.4000E+01
  -5.385  0.0000E+00  0.4000E+01
  -5.375  0.0000E+00  0.4000E+01
  -5.365  0.0000E+00  0.4000E+01
  -5.355  0.0000E+00  0.4000E+01
  -5.345  0.0000E+00  0.4000E+01
  -5.335  0.0000E+00  0.4000E+01
  -5.325  0.0000E+00  0.4000E+01
  -5.315  0.0000E+00  0.4000E+01
  -5.305  0.0000E+00  0.4000E+01
  -5.295  0.0000E+00  0.4000E+01
  -5.285  0.0000E+00  0.4000E+01
  -5.275  0.0000E+00  0.4000E+01
  -5.265  0.0000E+00  0.4000E+01
  -5.255  0.0000E+00  0.4000E+01
  -5.245  0.0000E+00  0.4000E+01
  -5.235  0.0000E+00  0.4000E+01
  -5.225  0.0000E+00  0.4000E+01
  -5.215  0.0000E+00  0.4000E+01
  -5.205  0.0000E+00  0.4000E+01
  -5.195  0.0000E+00  0.4000E+01
  -5.185  0.0000E+00  0.4000E+01
  -5.175  0.0000E+00  0.4000E+01
  -5.165  0.0000E+00  0.4000E+01
  -5.155  0.0000E+00  0.4000E+01
  -5.145  0.0000E+00  0.4000E+01
  -5.135  0.0000E+00  0.4000E+01
  -5.125  0.0000E+00  0.4000E+01
  -5.115  0.0000E+00  0.4000E+01
  -5.105  0.0000E+00  0.4000E+01
  -5.095  0.0000E+00  0.4000E+01
  -5.085  0.0000E+00  0.4000E+01
  -5.075  0.0000E+00  0.4000E+01
  -5.065  0.0000E+00  0.4000E+01
  -5.055  0.0000E+00  0.4000E+01
  -5.045  0.0000E+00  0.4000E+01
  -5.035  0.0000E+00  0.4000E+01
  -5.025  0.0000E+00  0.4000E+01
  -5.015  0.0000E+00  0.4000E+01
  -5.005  0.0000E+00  0.4000E+01
  -4.995  0.0000E+00  0.4000E+01
  -4.985  0.0000E+00  0.4000E+01
  -4.975  0.0000E+00  0.4000E+01
  -4.965  0.0000E+00  0.4000E+01
  -4.955  0.0000E+00  0.4000E+01
  -4.945  0.0000E+00  0.4000E+01
  -4.935  0.0000E+00  0.4000E+01
  -4.925  0.0000E+00  0.4000E+01
  -4.915  0.0000E+00  0.4000E+01
  -4.905  0.0000E+00  0.4000E+01
  -4.895  0.0000E+00  0.4000E+01
  -4.885  0.0000E+00  0.4000E+01
  -4.875  0.0000E+00  0.4000E+01
  -4.865  0.0000E+00  0.4000E+01
  -4.855  0.0000E+00  0.4000E+01
  -4.845  0.0000E+00  0.4000E+01
  -4.835  0.0000E+00  0.4000E+01
  -4.825  0.0000E+00  0.4000E+01
  -4.815  0.0000E+00  0.4000E+01
  -4.805  0.0000E+00  0.4000E+01
  -4.795  0.0000E+00  0.4000E+01
  -4.785  0.0000E+00  0.4000E+01
  -4.775  0.0000E+00  0.4000E+01
  -4.765  0.0000E+00  0.4000E+01
  -4.755  0.0000E+00  0.4000E+01
  -4.745  0.0000E+00  0.4000E+01
  -4.735  0.0000E+00  0.4000E+01
  -4.725  0.0000E+00  0.4000E+01
  -4.715  0.0000E+00  0.4000E+01
  -4.705  0.0000E+00  0.4000E+01
  -4.695  0.0000E+00  0.4000E+01
  -4.685  0.0000E+00  0.4000E+01
  -4.675  0.0000E+00  0.4000E+01
  -4.665  0.0000E+00  0.4000E+01
  -4.655  0.0000E+00  0.4000E+01
  -4.645  0.0000E+00  0.4000E+01
  -4.635  0.0000E+00  0.4000E+01
  -4.625  0.0000E+00  0.4000E+01
  -4.615  0.0000E+00  0.4000E+01
  -4.605  0.0000E+00  0.4000E+01
  -4.595  0.0000E+00  0.4000E+01
  -4.585  0.0000E+00  0.4000E+01
  -4.575  0.0000E+00  0.4000E+01
  -4.565  0.0000E+00  0.4000E+01
  -4.555  0.0000E+00  0.4000E+01
  -4.545  0.0000E+00  0.4000E+01
  -4.535  0.0000E+00  0.4000E+01
  -4.525  0.0000E+00  0.4000E+01
  -4.515  0.0000E+00  0.4000E+01
  -4.505  0.0000E+00  0.4000E+01
  -4.495  0.0000E+00  0.4000E+01
  -4.485  0.0000E+00  0.4000E+01
  -4.475  0.0000E+00  0.4000E+01
  -4.465  0.0000E+00  0.4000E+01
  -4.455  0.0000E+00  0.4000E+01
  -4.445  0.0000E+00  0.4000E+01
  -4.435  0.0000E+00  0.4000E+01
  -4.425  0.0000E+00  0.4000E+01
  -4.415  0.0000E+00  0.4000E+01
  -4.405  0.0000E+00  0.4000E+01
  -4.395  0.0000E+00  0.4000E+01
  -4.385  0.0000E+00  0.4000E+01
  -4.375  0.0000E+00  0.4000E+01
  -4.365  0.0000E+00  0.4000E+01
  -4.355  0.0000E+00  0.4000E+01
  -4.345  0.0000E+00  0.4000E+01
  -4.335  0.0000E+00  0.4000E+01
  -4.325  0.0000E+00  0.4000E+01
  -4.315  0.0000E+00  0.4000E+01
  -4.305  0.0000E+00  0.4000E+01
  -4.295  0.0000E+00  0.4000E+01
  -4.285  0.0000E+00  0.4000E+01
  -4.275  0.0000E+00  0.4000E+01
  -4.265  0.0000E+00  0.4000E+01
  -4.255  0.0000E+00  0.4000E+01
  -4.245  0.0000E+00  0.4000E+01
  -4.235  0.0000E+00  0.4000E+01
  -4.225  0.0000E+00  0.4000E+01
  -4.215  0.0000E+00  0.4000E+01
  -4.205  0.0000E+00  0.4000E+01
  -4.195  0.0000E+00  0.4000E+01
  -4.185  0.0000E+00  0.4000E+01
  -4.175  0.0000E+00  0.4000E+01
  -4.165  0.0000E+00  0.4000E+01
  -4.155  0.0000E+00  0.4000E+01
  -4.145  0.0000E+00  0.4000E+01
  -4.135  0.0000E+00  0.4000E+01
  -4.125  0.0000E+00  0.4000E+01
  -4.115  0.0000E+00  0.4000E+01
  -4.105  0.2356E+00  0.4001E+01
  -4.095  0.1861E+01  0.4009E+01
  -4.085  0.6400E+01  0.4048E+01
  -4.075  0.2188E+02  0.4178E+01
  -4.065  0.4848E+02  0.4520E+01
  -4.055  0.6555E+02  0.5133E+01
  -4.045  0.6780E+02  0.5775E+01
  -4.035  0.7159E+02  0.6486E+01
  -4.025  0.5605E+02  0.7129E+01
  -4.015  0.4310E+02  0.7621E+01
  -4.005  0.3691E+02  0.8006E+01
  -3.995  0.3621E+02  0.8360E+01
  -3.985  0.4103E+02  0.8745E+01
  -3.975  0.4216E+02  0.9164E+01
  -3.965  0.4724E+02  0.9594E+01
  -3.955  0.6347E+02  0.1017E+02
  -3.945  0.6178E+02  0.1081E+02
  -3.935  0.4909E+02  0.1137E+02
  -3.925  0.3348E+02  0.1178E+02
  -3.915  0.1936E+02  0.1203E+02
  -3.905  0.4870E+01  0.1217E+02
  -3.895  0.4720E+02  0.1239E+02
  -3.885  0.8438E+02  0.1308E+02
  -3.875  0.1217E+03  0.1411E+02
  -3.865  0.8864E+02  0.1514E+02
  -3.855  0.4395E+02  0.1575E+02
  -3.845  0.2275E+02  0.1607E+02
  -3.835  0.2016E+02  0.1627E+02
  -3.825  0.2573E+02  0.1650E+02
  -3.815  0.3273E+02  0.1679E+02
  -3.805  0.6740E+02  0.1730E+02
  -3.795  0.9493E+02  0.1808E+02
  -3.785  0.7616E+02  0.1905E+02
  -3.775  0.4820E+02  0.1965E+02
  -3.765  0.1732E+02  0.1998E+02
  -3.755  0.1430E+01  0.2005E+02
  -3.745  0.1062E+01  0.2006E+02
  -3.735  0.1078E+01  0.2007E+02
  -3.725  0.1094E+01  0.2009E+02
  -3.715  0.1109E+01  0.2010E+02
  -3.705  0.1124E+01  0.2011E+02
  -3.695  0.1139E+01  0.2012E+02
  -3.685  0.1153E+01  0.2013E+02
  -3.675  0.1166E+01  0.2014E+02
  -3.665  0.1180E+01  0.2015E+02
  -3.655  0.1192E+01  0.2017E+02
  -3.645  0.1204E+01  0.2018E+02
  -3.635  0.1216E+01  0.2019E+02
  -3.625  0.1227E+01  0.2020E+02
  -3.615  0.1238E+01  0.2021E+02
  -3.605  0.1249E+01  0.2023E+02
  -3.595  0.1258E+01  0.2024E+02
  -3.585  0.1268E+01  0.2025E+02
  -3.575  0.1277E+01  0.2026E+02
  -3.565  0.1285E+01  0.2028E+02
  -3.555  0.1293E+01  0.2029E+02
  -3.545  0.1301E+01  0.2030E+02
  -3.535  0.1308E+01  0.2032E+02
  -3.525  0.1315E+01  0.2033E+02
  -3.515  0.1321E+01  0.2034E+02
  -3.505  0.1327E+01  0.2036E+02
  -3.495  0.1332E+01  0.2037E+02
  -3.485  0.1337E+01  0.2038E+02
  -3.475  0.1341E+01  0.2040E+02
  -3.465  0.1345E+01  0.2041E+02
  -3.455  0.1348E+01  0.2042E+02
  -3.445  0.1351E+01  0.2044E+02
  -3.435  0.1354E+01  0.2045E+02
  -3.425  0.1356E+01  0.2046E+02
  -3.415  0.1357E+01  0.2048E+02
  -3.405  0.1358E+01  0.2049E+02
  -3.395  0.1359E+01  0.2050E+02
  -3.385  0.1359E+01  0.2052E+02
  -3.375  0.1359E+01  0.2053E+02
  -3.365  0.1358E+01  0.2055E+02
  -3.355  0.1357E+01  0.2056E+02
  -3.345  0.1355E+01  0.2057E+02
  -3.335  0.1353E+01  0.2059E+02
  -3.325  0.1350E+01  0.2060E+02
  -3.315  0.1347E+01  0.2061E+02
  -3.305  0.1344E+01  0.2063E+02
  -3.295  0.1340E+01  0.2064E+02
  -3.285  0.1335E+01  0.2065E+02
  -3.275  0.1351E+01  0.2067E+02
  -3.265  0.1368E+01  0.2068E+02
  -3.255  0.1385E+01  0.2069E+02
  -3.245  0.1403E+01  0.2071E+02
  -3.235  0.1421E+01  0.2072E+02
  -3.225  0.1439E+01  0.2074E+02
  -3.215  0.1457E+01  0.2075E+02
  -3.205  0.1475E+01  0.2077E+02
  -3.195  0.1494E+01  0.2078E+02
  -3.185  0.1512E+01  0.2080E+02
  -3.175  0.1531E+01  0.2081E+02
  -3.165  0.1550E+01  0.2083E+02
  -3.155  0.1570E+01  0.2084E+02
  -3.145  0.1589E+01  0.2086E+02
  -3.135  0.1609E+01  0.2087E+02
  -3.125  0.1629E+01  0.2089E+02
  -3.115  0.1650E+01  0.2091E+02
  -3.105  0.1670E+01  0.2092E+02
  -3.095  0.1691E+01  0.2094E+02
  -3.085  0.1712E+01  0.2096E+02
  -3.075  0.1733E+01  0.2097E+02
  -3.065  0.1754E+01  0.2099E+02
  -3.055  0.1776E+01  0.2101E+02
  -3.045  0.1797E+01  0.2103E+02
  -3.035  0.1819E+01  0.2104E+02
  -3.025  0.1841E+01  0.2106E+02
  -3.015  0.1864E+01  0.2108E+02
  -3.005  0.1886E+01  0.2110E+02
  -2.995  0.1909E+01  0.2112E+02
  -2.985  0.1932E+01  0.2114E+02
  -2.975  0.1955E+01  0.2116E+02
  -2.965  0.1979E+01  0.2118E+02
  -2.955  0.2003E+01  0.2120E+02
  -2.945  0.2026E+01  0.2122E+02
  -2.935  0.2050E+01  0.2124E+02
  -2.925  0.2075E+01  0.2126E+02
  -2.915  0.2099E+01  0.2128E+02
  -2.905  0.2124E+01  0.2130E+02
  -2.895  0.2149E+01  0.2132E+02
  -2.885  0.2174E+01  0.2134E+02
  -2.875  0.2199E+01  0.2137E+02
  -2.865  0.2225E+01  0.2139E+02
  -2.855  0.2251E+01  0.2141E+02
  -2.845  0.2277E+01  0.2143E+02
  -2.835  0.2303E+01  0.2146E+02
  -2.825  0.2765E+01  0.2148E+02
  -2.815  0.2897E+01  0.2151E+02
  -2.805  0.3021E+01  0.2154E+02
  -2.795  0.3135E+01  0.2157E+02
  -2.785  0.3240E+01  0.2160E+02
  -2.775  0.3336E+01  0.2164E+02
  -2.765  0.3423E+01  0.2167E+02
  -2.755  0.3500E+01  0.2170E+02
  -2.745  0.3569E+01  0.2174E+02
  -2.735  0.3628E+01  0.2178E+02
  -2.725  0.3679E+01  0.2181E+02
  -2.715  0.3720E+01  0.2185E+02
  -2.705  0.3752E+01  0.2189E+02
  -2.695  0.3775E+01  0.2192E+02
  -2.685  0.3789E+01  0.2196E+02
  -2.675  0.3793E+01  0.2200E+02
  -2.665  0.3789E+01  0.2204E+02
  -2.655  0.3775E+01  0.2208E+02
  -2.645  0.3755E+01  0.2211E+02
  -2.635  0.3734E+01  0.2215E+02
  -2.625  0.3713E+01  0.2219E+02
  -2.615  0.3691E+01  0.2222E+02
  -2.605  0.3670E+01  0.2226E+02
  -2.595  0.3648E+01  0.2230E+02
  -2.585  0.3626E+01  0.2233E+02
  -2.575  0.3604E+01  0.2237E+02
  -2.565  0.3582E+01  0.2241E+02
  -2.555  0.3559E+01  0.2244E+02
  -2.545  0.3536E+01  0.2248E+02
  -2.535  0.3513E+01  0.2251E+02
  -2.525  0.3489E+01  0.2255E+02
  -2.515  0.3464E+01  0.2258E+02
  -2.505  0.3438E+01  0.2262E+02
  -2.495  0.3412E+01  0.2265E+02
  -2.485  0.3385E+01  0.2269E+02
  -2.475  0.3357E+01  0.2272E+02
  -2.465  0.3329E+01  0.2275E+02
  -2.455  0.3300E+01  0.2279E+02
  -2.445  0.2898E+01  0.2282E+02
  -2.435  0.2809E+01  0.2285E+02
  -2.425  0.2796E+01  0.2288E+02
  -2.415  0.2806E+01  0.2290E+02
  -2.405  0.2815E+01  0.2293E+02
  -2.395  0.2823E+01  0.2296E+02
  -2.385  0.2830E+01  0.2299E+02
  -2.375  0.2837E+01  0.2302E+02
  -2.365  0.2843E+01  0.2305E+02
  -2.355  0.2849E+01  0.2307E+02
  -2.345  0.2854E+01  0.2310E+02
  -2.335  0.2858E+01  0.2313E+02
  -2.325  0.2861E+01  0.2316E+02
  -2.315  0.2864E+01  0.2319E+02
  -2.305  0.2866E+01  0.2322E+02
  -2.295  0.2867E+01  0.2325E+02
  -2.285  0.2868E+01  0.2327E+02
  -2.275  0.2868E+01  0.2330E+02
  -2.265  0.2868E+01  0.2333E+02
  -2.255  0.2866E+01  0.2336E+02
  -2.245  0.2864E+01  0.2339E+02
  -2.235  0.2861E+01  0.2342E+02
  -2.225  0.2858E+01  0.2345E+02
  -2.215  0.2854E+01  0.2347E+02
  -2.205  0.2849E+01  0.2350E+02
  -2.195  0.2844E+01  0.2353E+02
  -2.185  0.2823E+01  0.2356E+02
  -2.175  0.2781E+01  0.2359E+02
  -2.165  0.2726E+01  0.2362E+02
  -2.155  0.2658E+01  0.2364E+02
  -2.145  0.2576E+01  0.2367E+02
  -2.135  0.2481E+01  0.2369E+02
  -2.125  0.2372E+01  0.2372E+02
  -2.115  0.2257E+01  0.2374E+02
  -2.105  0.2144E+01  0.2376E+02
  -2.095  0.2033E+01  0.2378E+02
  -2.085  0.1924E+01  0.2380E+02
  -2.075  0.1817E+01  0.2382E+02
  -2.065  0.1713E+01  0.2384E+02
  -2.055  0.1610E+01  0.2386E+02
  -2.045  0.1510E+01  0.2387E+02
  -2.035  0.1411E+01  0.2389E+02
  -2.025  0.1315E+01  0.2390E+02
  -2.015  0.1221E+01  0.2391E+02
  -2.005  0.1129E+01  0.2392E+02
  -1.995  0.1039E+01  0.2394E+02
  -1.985  0.9515E+00  0.2395E+02
  -1.975  0.8659E+00  0.2395E+02
  -1.965  0.7823E+00  0.2396E+02
  -1.955  0.7009E+00  0.2397E+02
  -1.945  0.6216E+00  0.2398E+02
  -1.935  0.5444E+00  0.2398E+02
  -1.925  0.4693E+00  0.2399E+02
  -1.915  0.3964E+00  0.2399E+02
  -1.905  0.3255E+00  0.2400E+02
  -1.895  0.2568E+00  0.2400E+02
  -1.885  0.0000E+00  0.2400E+02
  -1.875  0.0000E+00  0.2400E+02
  -1.865  0.0000E+00  0.2400E+02
  -1.855  0.0000E+00  0.2400E+02
  -1.845  0.0000E+00  0.2400E+02
  -1.835  0.0000E+00  0.2400E+02
  -1.825  0.0000E+00  0.2400E+02
  -1.815  0.0000E+00  0.2400E+02
  -1.805  0.0000E+00  0.2400E+02
  -1.795  0.0000E+00  0.2400E+02
  -1.785  0.0000E+00  0.2400E+02
  -1.775  0.0000E+00  0.2400E+02
  -1.765  0.0000E+00  0.2400E+02
  -1.755  0.0000E+00  0.2400E+02
  -1.745  0.0000E+00  0.2400E+02
  -1.735  0.0000E+00  0.2400E+02
  -1.725  0.0000E+00  0.2400E+02
  -1.715  0.0000E+00  0.2400E+02
  -1.705  0.0000E+00  0.2400E+02
  -1.695  0.0000E+00  0.2400E+02
  -1.685  0.0000E+00  0.2400E+02
  -1.675  0.0000E+00  0.2400E+02
  -1.665  0.0000E+00  0.2400E+02
  -1.655  0.0000E+00  0.2400E+02
  -1.645  0.0000E+00  0.2400E+02
  -1.635  0.0000E+00  0.2400E+02
  -1.625  0.0000E+00  0.2400E+02
  -1.615  0.0000E+00  0.2400E+02
  -1.605  0.0000E+00  0.2400E+02
  -1.595  0.0000E+00  0.2400E+02
  -1.585  0.0000E+00  0.2400E+02
  -1.575  0.0000E+00  0.2400E+02
  -1.565  0.0000E+00  0.2400E+02
  -1.555  0.0000E+00  0.2400E+02
  -1.545  0.0000E+00  0.2400E+02
  -1.535  0.0000E+00  0.2400E+02
  -1.525  0.0000E+00  0.2400E+02
  -1.515  0.0000E+00  0.2400E+02
  -1.505  0.0000E+00  0.2400E+02
  -1.495  0.0000E+00  0.2400E+02
  -1.485  0.0000E+00  0.2400E+02
  -1.475  0.0000E+00  0.2400E+02
  -1.465  0.0000E+00  0.2400E+02
  -1.455  0.0000E+00  0.2400E+02
  -1.445  0.0000E+00  0.2400E+02
  -1.435  0.0000E+00  0.2400E+02
  -1.425  0.0000E+00  0.2400E+02
  -1.415  0.0000E+00  0.2400E+02
  -1.405  0.0000E+00  0.2400E+02
  -1.395  0.0000E+00  0.2400E+02
  -1.385  0.0000E+00  0.2400E+02
  -1.375  0.0000E+00  0.2400E+02
  -1.365  0.0000E+00  0.2400E+02
  -1.355  0.0000E+00  0.2400E+02
  -1.345  0.0000E+00  0.2400E+02
  -1.335  0.0000E+00  0.2400E+02
  -1.325  0.0000E+00  0.2400E+02
  -1.315  0.0000E+00  0.2400E+02
  -1.305  0.0000E+00  0.2400E+02
  -1.295  0.0000E+00  0.2400E+02
  -1.285  0.0000E+00  0.2400E+02
  -1.275  0.0000E+00  0.2400E+02
  -1.265  0.0000E+00  0.2400E+02
  -1.255  0.0000E+00  0.2400E+02
  -1.245  0.0000E+00  0.2400E+02
  -1.235  0.0000E+00  0.2400E+02
  -1.225  0.0000E+00  0.2400E+02
  -1.215  0.0000E+00  0.2400E+02
  -1.205  0.0000E+00  0.2400E+02
  -1.195  0.0000E+00  0.2400E+02
  -1.185  0.0000E+00  0.2400E+02
  -1.175  0.0000E+00  0.2400E+02
  -1.165  0.0000E+00  0.2400E+02
  -1.155  0.0000E+00  0.2400E+02
  -1.145  0.0000E+00  0.2400E+02
  -1.135  0.0000E+00  0.2400E+02
  -1.125  0.0000E+00  0.2400E+02
  -1.115  0.0000E+00  0.2400E+02
  -1.105  0.0000E+00  0.2400E+02
  -1.095  0.0000E+00  0.2400E+02
  -1.085  0.0000E+00  0.2400E+02
  -1.075  0.0000E+00  0.2400E+02
  -1.065  0.0000E+00  0.2400E+02
  -1.055  0.0000E+00  0.2400E+02
  -1.045  0.0000E+00  0.2400E+02
  -1.035  0.0000E+00  0.2400E+02
  -1.025  0.0000E+00  0.2400E+02
  -1.015  0.0000E+00  0.2400E+02
  -1.005  0.0000E+00  0.2400E+02
  -0.995  0.0000E+00  0.2400E+02
  -0.985  0.0000E+00  0.2400E+02
  -0.975  0.0000E+00  0.2400E+02
  -0.965  0.0000E+00  0.2400E+02
  -0.955  0.0000E+00  0.2400E+02
  -0.945  0.0000E+00  0.2400E+02
  -0.935  0.0000E+00  0.2400E+02
  -0.925  0.0000E+00  0.2400E+02
  -0.915  0.0000E+00  0.2400E+02
  -0.905  0.0000E+00  0.2400E+02
  -0.895  0.0000E+00  0.2400E+02
  -0.885  0.0000E+00  0.2400E+02
  -0.875  0.0000E+00  0.2400E+02
  -0.865  0.0000E+00  0.2400E+02
  -0.855  0.0000E+00  0.2400E+02
  -0.845  0.0000E+00  0.2400E+02
  -0.835  0.0000E+00  0.2400E+02
  -0.825  0.0000E+00  0.2400E+02
  -0.815  0.0000E+00  0.2400E+02
  -0.805  0.0000E+00  0.2400E+02
  -0.795  0.0000E+00  0.2400E+02
  -0.785  0.0000E+00  0.2400E+02
  -0.775  0.0000E+00  0.2400E+02
  -0.765  0.0000E+00  0.2400E+02
  -0.755  0.0000E+00  0.2400E+02
  -0.745  0.0000E+00  0.2400E+02
  -0.735  0.0000E+00  0.2400E+02
  -0.725  0.0000E+00  0.2400E+02
  -0.715  0.0000E+00  0.2400E+02
  -0.705  0.0000E+00  0.2400E+02
  -0.695  0.0000E+00  0.2400E+02
  -0.685  0.0000E+00  0.2400E+02
  -0.675  0.0000E+00  0.2400E+02
  -0.665  0.0000E+00  0.2400E+02
  -0.655  0.0000E+00  0.2400E+02
  -0.645  0.0000E+00  0.2400E+02
  -0.635  0.0000E+00  0.2400E+02
  -0.625  0.0000E+00  0.2400E+02
  -0.615  0.0000E+00  0.2400E+02
  -0.605  0.0000E+00  0.2400E+02
  -0.595  0.0000E+00  0.2400E+02
  -0.585  0.0000E+00  0.2400E+02
  -0.575  0.0000E+00  0.2400E+02
  -0.565  0.0000E+00  0.2400E+02
  -0.555  0.0000E+00  0.2400E+02
  -0.545  0.0000E+00  0.2400E+02
  -0.535  0.0000E+00  0.2400E+02
  -0.525  0.0000E+00  0.2400E+02
  -0.515  0.0000E+00  0.2400E+02
  -0.505  0.0000E+00  0.2400E+02
  -0.495  0.0000E+00  0.2400E+02
  -0.485  0.0000E+00  0.2400E+02
  -0.475  0.0000E+00  0.2400E+02
  -0.465  0.0000E+00  0.2400E+02
  -0.455  0.0000E+00  0.2400E+02
  -0.445  0.0000E+00  0.2400E+02
  -0.435  0.0000E+00  0.2400E+02
  -0.425  0.0000E+00  0.2400E+02
  -0.415  0.0000E+00  0.2400E+02
  -0.405  0.0000E+00  0.2400E+02
  -0.395  0.0000E+00  0.2400E+02
  -0.385  0.0000E+00  0.2400E+02
  -0.375  0.0000E+00  0.2400E+02
  -0.365  0.0000E+00  0.2400E+02
  -0.355  0.0000E+00  0.2400E+02
  -0.345  0.0000E+00  0.2400E+02
  -0.335  0.0000E+00  0.2400E+02
  -0.325  0.0000E+00  0.2400E+02
  -0.315  0.0000E+00  0.2400E+02
  -0.305  0.0000E+00  0.2400E+02
  -0.295  0.0000E+00  0.2400E+02
  -0.285  0.0000E+00  0.2400E+02
  -0.275  0.0000E+00  0.2400E+02
  -0.265  0.0000E+00  0.2400E+02
  -0.255  0.0000E+00  0.2400E+02
  -0.245  0.0000E+00  0.2400E+02
  -0.235  0.0000E+00  0.2400E+02
  -0.225  0.0000E+00  0.2400E+02
  -0.215  0.0000E+00  0.2400E+02
  -0.205  0.0000E+00  0.2400E+02
  -0.195  0.0000E+00  0.2400E+02
  -0.185  0.0000E+00  0.2400E+02
  -0.175  0.0000E+00  0.2400E+02
  -0.165  0.0000E+00  0.2400E+02
  -0.155  0.0000E+00  0.2400E+02
  -0.145  0.0000E+00  0.2400E+02
  -0.135  0.0000E+00  0.2400E+02
  -0.125  0.0000E+00  0.2400E+02
  -0.115  0.0000E+00  0.2400E+02
  -0.105  0.0000E+00  0.2400E+02
  -0.095  0.0000E+00  0.2400E+02
  -0.085  0.0000E+00  0.2400E+02
  -0.075  0.0000E+00  0.2400E+02
  -0.065  0.0000E+00  0.2400E+02
  -0.055  0.0000E+00  0.2400E+02
  -0.045  0.0000E+00  0.2400E+02
  -0.035  0.0000E+00  0.2400E+02
  -0.025  0.0000E+00  0.2400E+02
  -0.015  0.0000E+00  0.2400E+02
  -0.005  0.0000E+00  0.2400E+02
   0.005  0.0000E+00  0.2400E+02
   0.015  0.0000E+00  0.2400E+02
   0.025  0.0000E+00  0.2400E+02
   0.035  0.0000E+00  0.2400E+02
   0.045  0.0000E+00  0.2400E+02
   0.055  0.0000E+00  0.2400E+02
   0.065  0.0000E+00  0.2400E+02
   0.075  0.0000E+00  0.2400E+02
   0.085  0.0000E+00  0.2400E+02
   0.095  0.0000E+00  0.2400E+02
   0.105  0.0000E+00  0.2400E+02
   0.115  0.0000E+00  0.2400E+02
   0.125  0.0000E+00  0.2400E+02
   0.135  0.0000E+00  0.2400E+02
   0.145  0.0000E+00  0.2400E+02
   0.155  0.0000E+00  0.2400E+02
   0.165  0.0000E+00  0.2400E+02
   0.175  0.0000E+00  0.2400E+02
   0.185  0.0000E+00  0.2400E+02
   0.195  0.0000E+00  0.2400E+02
   0.205  0.0000E+00  0.2400E+02
   0.215  0.0000E+00  0.2400E+02
   0.225  0.0000E+00  0.2400E+02
   0.235  0.0000E+00  0.2400E+02
   0.245  0.0000E+00  0.2400E+02
   0.255  0.0000E+00  0.2400E+02
   0.265  0.0000E+00  0.2400E+02
   0.275  0.0000E+00  0.2400E+02
   0.285  0.0000E+00  0.2400E+02
   0.295  0.0000E+00  0.2400E+02
   0.305  0.0000E+00  0.2400E+02
   0.315  0.0000E+00  0.2400E+02
   0.325  0.0000E+00  0.2400E+02
   0.335  0.0000E+00  0.2400E+02
   0.345  0.0000E+00  0.2400E+02
   0.355  0.0000E+00  0.2400E+02
   0.365  0.0000E+00  0.2400E+02
   0.375  0.0000E+00  0.2400E+02
   0.385  0.0000E+00  0.2400E+02
   0.395  0.0000E+00  0.2400E+02
   0.405  0.0000E+00  0.2400E+02
   0.415  0.0000E+00  0.2400E+02
   0.425  0.0000E+00  0.2400E+02
   0.435  0.0000E+00  0.2400E+02
   0.445  0.0000E+00  0.2400E+02
   0.455  0.0000E+00  0.2400E+02
   0.465  0.0000E+00  0.2400E+02
   0.475  0.0000E+00  0.2400E+02
   0.485  0.0000E+00  0.2400E+02
   0.495  0.0000E+00  0.2400E+02
   0.505  0.0000E+00  0.2400E+02
   0.515  0.0000E+00  0.2400E+02
   0.525  0.0000E+00  0.2400E+02
   0.535  0.0000E+00  0.2400E+02
   0.545  0.0000E+00  0.2400E+02
   0.555  0.0000E+00  0.2400E+02
   0.565  0.0000E+00  0.2400E+02
   0.575  0.0000E+00  0.2400E+02
   0.585  0.0000E+00  0.2400E+02
   0.595  0.0000E+00  0.2400E+02
   0.605  0.0000E+00  0.2400E+02
   0.615  0.0000E+00  0.2400E+02
   0.625  0.0000E+00  0.2400E+02
   0.635  0.0000E+00  0.2400E+02
   0.645  0.0000E+00  0.2400E+02
   0.655  0.0000E+00  0.2400E+02
   0.665  0.0000E+00  0.2400E+02
   0.675  0.0000E+00  0.2400E+02
   0.685  0.0000E+00  0.2400E+02
   0.695  0.0000E+00  0.2400E+02
   0.705  0.0000E+00  0.2400E+02
   0.715  0.0000E+00  0.2400E+02
   0.725  0.0000E+00  0.2400E+02
   0.735  0.0000E+00  0.2400E+02
   0.745  0.0000E+00  0.2400E+02
   0.755  0.0000E+00  0.2400E+02
   0.765  0.0000E+00  0.2400E+02
   0.775  0.0000E+00  0.2400E+02
   0.785  0.0000E+00  0.2400E+02
   0.795  0.0000E+00  0.2400E+02
   0.805  0.0000E+00  0.2400E+02
   0.815  0.0000E+00  0.2400E+02
   0.825  0.0000E+00  0.2400E+02
   0.835  0.0000E+00  0.2400E+02
   0.845  0.0000E+00  0.2400E+02
   0.855  0.0000E+00  0.2400E+02
   0.865  0.0000E+00  0.2400E+02
   0.875  0.0000E+00  0.2400E+02
   0.885  0.0000E+00  0.2400E+02
   0.895  0.0000E+00  0.2400E+02
   0.905  0.0000E+00  0.2400E+02
   0.915  0.0000E+00  0.2400E+02
   0.925  0.0000E+00  0.2400E+02
   0.935  0.0000E+00  0.2400E+02
   0.945  0.0000E+00  0.2400E+02
   0.955  0.0000E+00  0.2400E+02
   0.965  0.0000E+00  0.2400E+02
   0.975  0.0000E+00  0.2400E+02
   0.985  0.0000E+00  0.2400E+02
   0.995  0.0000E+00  0.2400E+02
   1.005  0.0000E+00  0.2400E+02
   1.015  0.0000E+00  0.2400E+02
   1.025  0.0000E+00  0.2400E+02
   1.035  0.0000E+00  0.2400E+02
   1.045  0.0000E+00  0.2400E+02
   1.055  0.0000E+00  0.2400E+02
   1.065  0.0000E+00  0.2400E+02
   1.075  0.0000E+00  0.2400E+02
   1.085  0.0000E+00  0.2400E+02
   1.095  0.0000E+00  0.2400E+02
   1.105  0.0000E+00  0.2400E+02
   1.115  0.0000E+00  0.2400E+02
   1.125  0.0000E+00  0.2400E+02
   1.135  0.0000E+00  0.2400E+02
   1.145  0.0000E+00  0.2400E+02
   1.155  0.0000E+00  0.2400E+02
   1.165  0.0000E+00  0.2400E+02
   1.175  0.0000E+00  0.2400E+02
   1.185  0.0000E+00  0.2400E+02
   1.195  0.0000E+00  0.2400E+02
   1.205  0.0000E+00  0.2400E+02
   1.215  0.0000E+00  0.2400E+02
   1.225  0.0000E+00  0.2400E+02
   1.235  0.0000E+00  0.2400E+02
   1.245  0.0000E+00  0.2400E+02
   1.255  0.0000E+00  0.2400E+02
   1.265  0.0000E+00  0.2400E+02
   1.275  0.0000E+00  0.2400E+02
   1.285  0.0000E+00  0.2400E+02
   1.295  0.0000E+00  0.2400E+02
   1.305  0.0000E+00  0.2400E+02
   1.315  0.0000E+00  0.2400E+02
   1.325  0.0000E+00  0.2400E+02
   1.335  0.0000E+00  0.2400E+02
   1.345  0.0000E+00  0.2400E+02
   1.355  0.0000E+00  0.2400E+02
   1.365  0.0000E+00  0.2400E+02
   1.375  0.0000E+00  0.2400E+02
   1.385  0.0000E+00  0.2400E+02
   1.395  0.0000E+00  0.2400E+02
   1.405  0.0000E+00  0.2400E+02
   1.415  0.0000E+00  0.2400E+02
   1.425  0.0000E+00  0.2400E+02
   1.435  0.0000E+00  0.2400E+02
   1.445  0.0000E+00  0.2400E+02
   1.455  0.0000E+00  0.2400E+02
   1.465  0.0000E+00  0.2400E+02
   1.475  0.0000E+00  0.2400E+02
   1.485  0.0000E+00  0.2400E+02
   1.495  0.0000E+00  0.2400E+02
   1.505  0.0000E+00  0.2400E+02
   1.515  0.0000E+00  0.2400E+02
   1.525  0.0000E+00  0.2400E+02
   1.535  0.0000E+00  0.2400E+02
   1.545  0.0000E+00  0.2400E+02
   1.555  0.0000E+00  0.2400E+02
   1.565  0.0000E+00  0.2400E+02
   1.575  0.0000E+00  0.2400E+02
   1.585  0.0000E+00  0.2400E+02
   1.595  0.0000E+00  0.2400E+02
   1.605  0.0000E+00  0.2400E+02
   1.615  0.0000E+00  0.2400E+02
   1.625  0.0000E+00  0.2400E+02
   1.635  0.0000E+00  0.2400E+02
   1.645  0.0000E+00  0.2400E+02
   1.655  0.0000E+00  0.2400E+02
   1.665  0.0000E+00  0.2400E+02
   1.675  0.0000E+00  0.2400E+02
   1.685  0.0000E+00  0.2400E+02
   1.695  0.0000E+00  0.2400E+02
   1.705  0.0000E+00  0.2400E+02
   1.715  0.0000E+00  0.2400E+02
   1.725  0.0000E+00  0.2400E+02
   1.735  0.0000E+00  0.2400E+02
   1.745  0.0000E+00  0.2400E+02
   1.755  0.0000E+00  0.2400E+02
   1.765  0.0000E+00  0.2400E+02
   1.775  0.0000E+00  0.2400E+02
   1.785  0.0000E+00  0.2400E+02
   1.795  0.0000E+00  0.2400E+02
   1.805  0.0000E+00  0.2400E+02
   1.815  0.0000E+00  0.2400E+02
   1.825  0.0000E+00  0.2400E+02
   1.835  0.0000E+00  0.2400E+02
   1.845  0.0000E+00  0.2400E+02
   1.855  0.0000E+00  0.2400E+02
   1.865  0.0000E+00  0.2400E+02
   1.875  0.0000E+00  0.2400E+02
   1.885  0.0000E+00  0.2400E+02
   1.895  0.0000E+00  0.2400E+02
   1.905  0.0000E+00  0.2400E+02
   1.915  0.0000E+00  0.2400E+02
   1.925  0.0000E+00  0.2400E+02
   1.935  0.0000E+00  0.2400E+02
   1.945  0.0000E+00  0.2400E+02
   1.955  0.0000E+00  0.2400E+02
   1.965  0.0000E+00  0.2400E+02
   1.975  0.0000E+00  0.2400E+02
   1.985  0.0000E+00  0.2400E+02
   1.995  0.0000E+00  0.2400E+02
   2.005  0.0000E+00  0.2400E+02
   2.015  0.0000E+00  0.2400E+02
   2.025  0.0000E+00  0.2400E+02
   2.035  0.0000E+00  0.2400E+02
   2.045  0.0000E+00  0.2400E+02
   2.055  0.0000E+00  0.2400E+02
   2.065  0.0000E+00  0.2400E+02
   2.075  0.0000E+00  0.2400E+02
   2.085  0.0000E+00  0.2400E+02
   2.095  0.0000E+00  0.2400E+02
   2.105  0.0000E+00  0.2400E+02
   2.115  0.0000E+00  0.2400E+02
   2.125  0.0000E+00  0.2400E+02
   2.135  0.0000E+00  0.2400E+02
   2.145  0.0000E+00  0.2400E+02
   2.155  0.0000E+00  0.2400E+02
   2.165  0.0000E+00  0.2400E+02
   2.175  0.0000E+00  0.2400E+02
   2.185  0.0000E+00  0.2400E+02
   2.195  0.0000E+00  0.2400E+02
   2.205  0.0000E+00  0.2400E+02
   2.215  0.0000E+00  0.2400E+02
   2.225  0.0000E+00  0.2400E+02
   2.235  0.0000E+00  0.2400E+02
   2.245  0.0000E+00  0.2400E+02
   2.255  0.0000E+00  0.2400E+02
   2.265  0.0000E+00  0.2400E+02
   2.275  0.0000E+00  0.2400E+02
   2.285  0.0000E+00  0.2400E+02
   2.295  0.0000E+00  0.2400E+02
   2.305  0.0000E+00  0.2400E+02
   2.315  0.0000E+00  0.2400E+02
   2.325  0.0000E+00  0.2400E+02
   2.335  0.0000E+00  0.2400E+02
   2.345  0.0000E+00  0.2400E+02
   2.355  0.0000E+00  0.2400E+02
   2.365  0.0000E+00  0.2400E+02
   2.375  0.0000E+00  0.2400E+02
   2.385  0.0000E+00  0.2400E+02
   2.395  0.0000E+00  0.2400E+02
   2.405  0.0000E+00  0.2400E+02
   2.415  0.0000E+00  0.2400E+02
   2.425  0.1970E-04  0.2400E+02
   2.435  0.9856E-04  0.2400E+02
   2.445  0.2377E-03  0.2400E+02
   2.455  0.4371E-03  0.2400E+02
   2.465  0.6967E-03  0.2400E+02
   2.475  0.1017E-02  0.2400E+02
   2.485  0.1397E-02  0.2400E+02
   2.495  0.1837E-02  0.2400E+02
   2.505  0.2338E-02  0.2400E+02
   2.515  0.2899E-02  0.2400E+02
   2.525  0.3520E-02  0.2400E+02
   2.535  0.4202E-02  0.2400E+02
   2.545  0.4943E-02  0.2400E+02
   2.555  0.5745E-02  0.2400E+02
   2.565  0.6608E-02  0.2400E+02
   2.575  0.7530E-02  0.2400E+02
   2.585  0.8513E-02  0.2400E+02
   2.595  0.9556E-02  0.2400E+02
   2.605  0.1066E-01  0.2400E+02
   2.615  0.1182E-01  0.2400E+02
   2.625  0.1305E-01  0.2400E+02
   2.635  0.1433E-01  0.2400E+02
   2.645  0.1568E-01  0.2400E+02
   2.655  0.1708E-01  0.2400E+02
   2.665  0.1854E-01  0.2400E+02
   2.675  0.2007E-01  0.2400E+02
   2.685  0.2166E-01  0.2400E+02
   2.695  0.2330E-01  0.2400E+02
   2.705  0.2501E-01  0.2400E+02
   2.715  0.2677E-01  0.2400E+02
   2.725  0.2860E-01  0.2400E+02
   2.735  0.3049E-01  0.2400E+02
   2.745  0.3243E-01  0.2400E+02
   2.755  0.3444E-01  0.2400E+02
   2.765  0.3651E-01  0.2400E+02
   2.775  0.3864E-01  0.2400E+02
   2.785  0.4082E-01  0.2401E+02
   2.795  0.4307E-01  0.2401E+02
   2.805  0.4538E-01  0.2401E+02
   2.815  0.4775E-01  0.2401E+02
   2.825  0.5018E-01  0.2401E+02
   2.835  0.5267E-01  0.2401E+02
   2.845  0.5525E-01  0.2401E+02
   2.855  0.6071E-01  0.2401E+02
   2.865  0.7091E-01  0.2401E+02
   2.875  0.8585E-01  0.2401E+02
   2.885  0.1055E+00  0.2401E+02
   2.895  0.1300E+00  0.2401E+02
   2.905  0.1591E+00  0.2401E+02
   2.915  0.1930E+00  0.2402E+02
   2.925  0.2317E+00  0.2402E+02
   2.935  0.2751E+00  0.2402E+02
   2.945  0.3232E+00  0.2402E+02
   2.955  0.3761E+00  0.2403E+02
   2.965  0.4337E+00  0.2403E+02
   2.975  0.4961E+00  0.2404E+02
   2.985  0.5604E+00  0.2404E+02
   2.995  0.6241E+00  0.2405E+02
   3.005  0.6874E+00  0.2405E+02
   3.015  0.7501E+00  0.2406E+02
   3.025  0.8123E+00  0.2407E+02
   3.035  0.8740E+00  0.2408E+02
   3.045  0.9352E+00  0.2409E+02
   3.055  0.9958E+00  0.2409E+02
   3.065  0.1056E+01  0.2411E+02
   3.075  0.1116E+01  0.2412E+02
   3.085  0.1175E+01  0.2413E+02
   3.095  0.1233E+01  0.2414E+02
   3.105  0.1291E+01  0.2415E+02
   3.115  0.1349E+01  0.2417E+02
   3.125  0.1406E+01  0.2418E+02
   3.135  0.1462E+01  0.2419E+02
   3.145  0.1518E+01  0.2421E+02
   3.155  0.1573E+01  0.2422E+02
   3.165  0.1628E+01  0.2424E+02
   3.175  0.1683E+01  0.2426E+02
   3.185  0.1737E+01  0.2427E+02
   3.195  0.1798E+01  0.2429E+02
   3.205  0.1876E+01  0.2431E+02
   3.215  0.1951E+01  0.2433E+02
   3.225  0.2023E+01  0.2435E+02
   3.235  0.2093E+01  0.2437E+02
   3.245  0.2161E+01  0.2439E+02
   3.255  0.2226E+01  0.2441E+02
   3.265  0.2288E+01  0.2443E+02
   3.275  0.2347E+01  0.2446E+02
   3.285  0.2404E+01  0.2448E+02
   3.295  0.2459E+01  0.2451E+02
   3.305  0.2510E+01  0.2453E+02
   3.315  0.2560E+01  0.2456E+02
   3.325  0.2606E+01  0.2458E+02
   3.335  0.2650E+01  0.2461E+02
   3.345  0.2691E+01  0.2464E+02
   3.355  0.2730E+01  0.2466E+02
   3.365  0.2766E+01  0.2469E+02
   3.375  0.2800E+01  0.2472E+02
   3.385  0.2831E+01  0.2475E+02
   3.395  0.2859E+01  0.2477E+02
   3.405  0.2885E+01  0.2480E+02
   3.415  0.2908E+01  0.2483E+02
   3.425  0.2929E+01  0.2486E+02
   3.435  0.2947E+01  0.2489E+02
   3.445  0.2962E+01  0.2492E+02
   3.455  0.2975E+01  0.2495E+02
   3.465  0.2985E+01  0.2498E+02
   3.475  0.3706E+01  0.2502E+02
   3.485  0.3647E+01  0.2505E+02
   3.495  0.3587E+01  0.2509E+02
   3.505  0.3528E+01  0.2512E+02
   3.515  0.3469E+01  0.2516E+02
   3.525  0.3411E+01  0.2519E+02
   3.535  0.3352E+01  0.2523E+02
   3.545  0.3294E+01  0.2526E+02
   3.555  0.3236E+01  0.2529E+02
   3.565  0.3178E+01  0.2533E+02
   3.575  0.3120E+01  0.2536E+02
   3.585  0.3062E+01  0.2539E+02
   3.595  0.3005E+01  0.2542E+02
   3.605  0.2948E+01  0.2545E+02
   3.615  0.2891E+01  0.2548E+02
   3.625  0.2834E+01  0.2551E+02
   3.635  0.2777E+01  0.2553E+02
   3.645  0.2721E+01  0.2556E+02
   3.655  0.2664E+01  0.2559E+02
   3.665  0.2608E+01  0.2561E+02
   3.675  0.1970E+01  0.2564E+02
   3.685  0.1969E+01  0.2566E+02
   3.695  0.1968E+01  0.2568E+02
   3.705  0.1967E+01  0.2570E+02
   3.715  0.1966E+01  0.2572E+02
   3.725  0.1965E+01  0.2573E+02
   3.735  0.1964E+01  0.2575E+02
   3.745  0.1963E+01  0.2577E+02
   3.755  0.1963E+01  0.2579E+02
   3.765  0.1962E+01  0.2581E+02
   3.775  0.1961E+01  0.2583E+02
   3.785  0.1961E+01  0.2585E+02
   3.795  0.1961E+01  0.2587E+02
   3.805  0.1960E+01  0.2589E+02
   3.815  0.1960E+01  0.2591E+02
   3.825  0.1960E+01  0.2593E+02
   3.835  0.1960E+01  0.2595E+02
   3.845  0.1959E+01  0.2597E+02
   3.855  0.1959E+01  0.2599E+02
   3.865  0.1959E+01  0.2601E+02
   3.875  0.1959E+01  0.2603E+02
   3.885  0.1960E+01  0.2605E+02
   3.895  0.1960E+01  0.2607E+02
   3.905  0.1960E+01  0.2609E+02
   3.915  0.1960E+01  0.2611E+02
   3.925  0.1961E+01  0.2613E+02
   3.935  0.1961E+01  0.2615E+02
   3.945  0.1962E+01  0.2617E+02
   3.955  0.1962E+01  0.2619E+02
   3.965  0.1963E+01  0.2621E+02
   3.975  0.1963E+01  0.2623E+02
   3.985  0.1964E+01  0.2624E+02
   3.995  0.1965E+01  0.2626E+02
   4.005  0.1966E+01  0.2628E+02
   4.015  0.1967E+01  0.2630E+02
   4.025  0.1968E+01  0.2632E+02
   4.035  0.1969E+01  0.2634E+02
   4.045  0.1970E+01  0.2636E+02
   4.055  0.1971E+01  0.2638E+02
   4.065  0.1972E+01  0.2640E+02
   4.075  0.1973E+01  0.2642E+02
   4.085  0.1975E+01  0.2644E+02
   4.095  0.1976E+01  0.2646E+02
   4.105  0.1977E+01  0.2648E+02
   4.115  0.1975E+01  0.2650E+02
   4.125  0.1969E+01  0.2652E+02
   4.135  0.1961E+01  0.2654E+02
   4.145  0.1949E+01  0.2656E+02
   4.155  0.1935E+01  0.2658E+02
   4.165  0.1917E+01  0.2660E+02
   4.175  0.1896E+01  0.2662E+02
   4.185  0.1871E+01  0.2664E+02
   4.195  0.1844E+01  0.2666E+02
   4.205  0.1814E+01  0.2667E+02
   4.215  0.1780E+01  0.2669E+02
   4.225  0.1743E+01  0.2671E+02
   4.235  0.1704E+01  0.2673E+02
   4.245  0.1661E+01  0.2674E+02
   4.255  0.1614E+01  0.2676E+02
   4.265  0.1565E+01  0.2678E+02
   4.275  0.1513E+01  0.2679E+02
   4.285  0.1335E+01  0.2680E+02
   4.295  0.1327E+01  0.2682E+02
   4.305  0.1318E+01  0.2683E+02
   4.315  0.1309E+01  0.2684E+02
   4.325  0.1300E+01  0.2686E+02
   4.335  0.1291E+01  0.2687E+02
   4.345  0.1283E+01  0.2688E+02
   4.355  0.1274E+01  0.2690E+02
   4.365  0.1265E+01  0.2691E+02
   4.375  0.1256E+01  0.2692E+02
   4.385  0.1248E+01  0.2693E+02
   4.395  0.1239E+01  0.2695E+02
   4.405  0.1230E+01  0.2696E+02
   4.415  0.1222E+01  0.2697E+02
   4.425  0.1213E+01  0.2698E+02
   4.435  0.1204E+01  0.2700E+02
   4.445  0.1196E+01  0.2701E+02
   4.455  0.1187E+01  0.2702E+02
   4.465  0.1179E+01  0.2703E+02
   4.475  0.1170E+01  0.2704E+02
   4.485  0.1161E+01  0.2705E+02
   4.495  0.1153E+01  0.2707E+02
   4.505  0.1144E+01  0.2708E+02
   4.515  0.1136E+01  0.2709E+02
   4.525  0.1127E+01  0.2710E+02
   4.535  0.1119E+01  0.2711E+02
   4.545  0.1110E+01  0.2712E+02
   4.555  0.1102E+01  0.2713E+02
   4.565  0.1093E+01  0.2714E+02
   4.575  0.1085E+01  0.2716E+02
   4.585  0.1076E+01  0.2717E+02
   4.595  0.1068E+01  0.2718E+02
   4.605  0.1060E+01  0.2719E+02
   4.615  0.1051E+01  0.2720E+02
   4.625  0.1043E+01  0.2721E+02
   4.635  0.1035E+01  0.2722E+02
   4.645  0.1026E+01  0.2723E+02
   4.655  0.1018E+01  0.2724E+02
   4.665  0.1010E+01  0.2725E+02
   4.675  0.1001E+01  0.2726E+02
   4.685  0.9929E+00  0.2727E+02
   4.695  0.9847E+00  0.2728E+02
   4.705  0.9764E+00  0.2729E+02
   4.715  0.9681E+00  0.2730E+02
   4.725  0.9599E+00  0.2731E+02
   4.735  0.9517E+00  0.2732E+02
   4.745  0.9435E+00  0.2733E+02
   4.755  0.9353E+00  0.2734E+02
   4.765  0.9271E+00  0.2735E+02
   4.775  0.9189E+00  0.2736E+02
   4.785  0.9108E+00  0.2736E+02
   4.795  0.9058E+00  0.2737E+02
   4.805  0.9008E+00  0.2738E+02
   4.815  0.8958E+00  0.2739E+02
   4.825  0.8906E+00  0.2740E+02
   4.835  0.8853E+00  0.2741E+02
   4.845  0.8799E+00  0.2742E+02
   4.855  0.8743E+00  0.2743E+02
   4.865  0.8687E+00  0.2744E+02
   4.875  0.8629E+00  0.2744E+02
   4.885  0.8570E+00  0.2745E+02
   4.895  0.8510E+00  0.2746E+02
   4.905  0.8448E+00  0.2747E+02
   4.915  0.8386E+00  0.2748E+02
   4.925  0.8322E+00  0.2749E+02
   4.935  0.8257E+00  0.2750E+02
   4.945  0.8191E+00  0.2750E+02
   4.955  0.8123E+00  0.2751E+02
   4.965  0.8055E+00  0.2752E+02
   4.975  0.7985E+00  0.2753E+02
   4.985  0.7914E+00  0.2754E+02
   4.995  0.7842E+00  0.2754E+02
   5.005  0.7768E+00  0.2755E+02
   5.015  0.7694E+00  0.2756E+02
   5.025  0.7618E+00  0.2757E+02
   5.035  0.7541E+00  0.2757E+02
   5.045  0.7463E+00  0.2758E+02
   5.055  0.7384E+00  0.2759E+02
   5.065  0.7303E+00  0.2760E+02
   5.075  0.7221E+00  0.2760E+02
   5.085  0.7138E+00  0.2761E+02
   5.095  0.7054E+00  0.2762E+02
   5.105  0.6969E+00  0.2763E+02
   5.115  0.6882E+00  0.2763E+02
   5.125  0.6795E+00  0.2764E+02
   5.135  0.6706E+00  0.2765E+02
   5.145  0.6616E+00  0.2765E+02
   5.155  0.6524E+00  0.2766E+02
   5.165  0.6432E+00  0.2767E+02
   5.175  0.6338E+00  0.2767E+02
   5.185  0.6243E+00  0.2768E+02
   5.195  0.6147E+00  0.2768E+02
   5.205  0.6050E+00  0.2769E+02
   5.215  0.5951E+00  0.2770E+02
   5.225  0.5874E+00  0.2770E+02
   5.235  0.5839E+00  0.2771E+02
   5.245  0.5846E+00  0.2771E+02
   5.255  0.5896E+00  0.2772E+02
   5.265  0.5988E+00  0.2773E+02
   5.275  0.6122E+00  0.2773E+02
   5.285  0.6299E+00  0.2774E+02
   5.295  0.6519E+00  0.2774E+02
   5.305  0.6780E+00  0.2775E+02
   5.315  0.7084E+00  0.2776E+02
   5.325  0.7430E+00  0.2777E+02
   5.335  0.7819E+00  0.2777E+02
   5.345  0.8250E+00  0.2778E+02
   5.355  0.8724E+00  0.2779E+02
   5.365  0.9240E+00  0.2780E+02
   5.375  0.1121E+01  0.2781E+02
   5.385  0.1118E+01  0.2782E+02
   5.395  0.1115E+01  0.2783E+02
   5.405  0.1109E+01  0.2784E+02
   5.415  0.1082E+01  0.2785E+02
   5.425  0.1059E+01  0.2786E+02
   5.435  0.1260E+01  0.2788E+02
   5.445  0.1255E+01  0.2789E+02
   5.455  0.1254E+01  0.2790E+02
   5.465  0.1256E+01  0.2791E+02
   5.475  0.1263E+01  0.2793E+02
   5.485  0.1273E+01  0.2794E+02
   5.495  0.1286E+01  0.2795E+02
   5.505  0.1304E+01  0.2797E+02
   5.515  0.1321E+01  0.2798E+02
   5.525  0.1339E+01  0.2799E+02
   5.535  0.1357E+01  0.2801E+02
   5.545  0.1375E+01  0.2802E+02
   5.555  0.1393E+01  0.2803E+02
   5.565  0.1411E+01  0.2805E+02
   5.575  0.1429E+01  0.2806E+02
   5.585  0.1447E+01  0.2808E+02
   5.595  0.1465E+01  0.2809E+02
   5.605  0.1483E+01  0.2810E+02
   5.615  0.1501E+01  0.2812E+02
   5.625  0.1519E+01  0.2813E+02
   5.635  0.1538E+01  0.2815E+02
   5.645  0.1556E+01  0.2817E+02
   5.655  0.1574E+01  0.2818E+02
   5.665  0.1593E+01  0.2820E+02
   5.675  0.1611E+01  0.2821E+02
   5.685  0.1630E+01  0.2823E+02
   5.695  0.1648E+01  0.2825E+02
   5.705  0.1667E+01  0.2826E+02
   5.715  0.1686E+01  0.2828E+02
   5.725  0.1704E+01  0.2830E+02
   5.735  0.1723E+01  0.2831E+02
   5.745  0.1742E+01  0.2833E+02
   5.755  0.1761E+01  0.2835E+02
   5.765  0.1780E+01  0.2837E+02
   5.775  0.1799E+01  0.2838E+02
   5.785  0.1818E+01  0.2840E+02
   5.795  0.1837E+01  0.2842E+02
   5.805  0.1856E+01  0.2844E+02
   5.815  0.1875E+01  0.2846E+02
   5.825  0.1894E+01  0.2848E+02
   5.835  0.1913E+01  0.2849E+02
   5.845  0.1933E+01  0.2851E+02
   5.855  0.1952E+01  0.2853E+02
   5.865  0.1971E+01  0.2855E+02
   5.875  0.1991E+01  0.2857E+02
   5.885  0.2010E+01  0.2859E+02
   5.895  0.2030E+01  0.2861E+02
   5.905  0.2049E+01  0.2863E+02
   5.915  0.2069E+01  0.2865E+02
   5.925  0.2089E+01  0.2867E+02
   5.935  0.2108E+01  0.2870E+02
   5.945  0.2128E+01  0.2872E+02
   5.955  0.2148E+01  0.2874E+02
   5.965  0.2168E+01  0.2876E+02
   5.975  0.2187E+01  0.2878E+02
   5.985  0.2207E+01  0.2880E+02
   5.995  0.2227E+01  0.2883E+02
   6.005  0.2247E+01  0.2885E+02
   6.015  0.2267E+01  0.2887E+02
   6.025  0.1871E+01  0.2889E+02
   6.035  0.1878E+01  0.2891E+02
   6.045  0.1885E+01  0.2893E+02
   6.055  0.1892E+01  0.2895E+02
   6.065  0.1899E+01  0.2897E+02
   6.075  0.1906E+01  0.2898E+02
   6.085  0.1912E+01  0.2900E+02
   6.095  0.1919E+01  0.2902E+02
   6.105  0.1926E+01  0.2904E+02
   6.115  0.1932E+01  0.2906E+02
   6.125  0.1939E+01  0.2908E+02
   6.135  0.1945E+01  0.2910E+02
   6.145  0.1952E+01  0.2912E+02
   6.155  0.1958E+01  0.2914E+02
   6.165  0.1965E+01  0.2916E+02
   6.175  0.1971E+01  0.2918E+02
   6.185  0.1977E+01  0.2920E+02
   6.195  0.1983E+01  0.2922E+02
   6.205  0.1990E+01  0.2924E+02
   6.215  0.1996E+01  0.2926E+02
   6.225  0.2002E+01  0.2928E+02
   6.235  0.2008E+01  0.2930E+02
   6.245  0.2014E+01  0.2932E+02
   6.255  0.2020E+01  0.2934E+02
   6.265  0.2026E+01  0.2936E+02
   6.275  0.2031E+01  0.2938E+02
   6.285  0.2037E+01  0.2940E+02
   6.295  0.2043E+01  0.2942E+02
   6.305  0.2049E+01  0.2944E+02
   6.315  0.2054E+01  0.2946E+02
   6.325  0.2060E+01  0.2948E+02
   6.335  0.2065E+01  0.2950E+02
   6.345  0.2071E+01  0.2952E+02
   6.355  0.2076E+01  0.2954E+02
   6.365  0.2081E+01  0.2956E+02
   6.375  0.2087E+01  0.2958E+02
   6.385  0.2092E+01  0.2961E+02
   6.395  0.2097E+01  0.2963E+02
   6.405  0.2102E+01  0.2965E+02
   6.415  0.2107E+01  0.2967E+02
   6.425  0.2113E+01  0.2969E+02
   6.435  0.2118E+01  0.2971E+02
   6.445  0.2122E+01  0.2973E+02
   6.455  0.2125E+01  0.2975E+02
   6.465  0.2127E+01  0.2977E+02
   6.475  0.2130E+01  0.2980E+02
   6.485  0.2132E+01  0.2982E+02
   6.495  0.2135E+01  0.2984E+02
   6.505  0.2137E+01  0.2986E+02
   6.515  0.2139E+01  0.2988E+02
   6.525  0.2141E+01  0.2990E+02
   6.535  0.2143E+01  0.2992E+02
   6.545  0.2145E+01  0.2994E+02
   6.555  0.2147E+01  0.2997E+02
   6.565  0.2148E+01  0.2999E+02
   6.575  0.2150E+01  0.3001E+02
   6.585  0.2151E+01  0.3003E+02
   6.595  0.2153E+01  0.3005E+02
   6.605  0.2154E+01  0.3007E+02
   6.615  0.2155E+01  0.3010E+02
   6.625  0.2156E+01  0.3012E+02
   6.635  0.2157E+01  0.3014E+02
   6.645  0.2157E+01  0.3016E+02
   6.655  0.2157E+01  0.3018E+02
   6.665  0.2157E+01  0.3020E+02
   6.675  0.2156E+01  0.3022E+02
   6.685  0.2155E+01  0.3025E+02
   6.695  0.2154E+01  0.3027E+02
   6.705  0.2152E+01  0.3029E+02
   6.715  0.2149E+01  0.3031E+02
   6.725  0.2146E+01  0.3033E+02
   6.735  0.2143E+01  0.3035E+02
   6.745  0.2139E+01  0.3038E+02
   6.755  0.2134E+01  0.3040E+02
   6.765  0.2130E+01  0.3042E+02
   6.775  0.2124E+01  0.3044E+02
   6.785  0.2119E+01  0.3046E+02
   6.795  0.2113E+01  0.3048E+02
   6.805  0.2106E+01  0.3050E+02
   6.815  0.2099E+01  0.3052E+02
   6.825  0.2092E+01  0.3054E+02
   6.835  0.2084E+01  0.3057E+02
   6.845  0.2075E+01  0.3059E+02
   6.855  0.2067E+01  0.3061E+02
   6.865  0.2057E+01  0.3063E+02
   6.875  0.2048E+01  0.3065E+02
   6.885  0.2037E+01  0.3067E+02
   6.895  0.2027E+01  0.3069E+02
   6.905  0.2016E+01  0.3071E+02
   6.915  0.2004E+01  0.3073E+02
   6.925  0.1992E+01  0.3075E+02
   6.935  0.1980E+01  0.3077E+02
   6.945  0.1967E+01  0.3079E+02
   6.955  0.1954E+01  0.3081E+02
   6.965  0.1940E+01  0.3083E+02
   6.975  0.1926E+01  0.3085E+02
   6.985  0.1911E+01  0.3087E+02
   6.995  0.1896E+01  0.3089E+02
   7.005  0.1880E+01  0.3090E+02
   7.015  0.1864E+01  0.3092E+02
   7.025  0.1848E+01  0.3094E+02
   7.035  0.1831E+01  0.3096E+02
   7.045  0.1813E+01  0.3098E+02
   7.055  0.1795E+01  0.3100E+02
   7.065  0.1777E+01  0.3101E+02
   7.075  0.1758E+01  0.3103E+02
   7.085  0.1739E+01  0.3105E+02
   7.095  0.1720E+01  0.3107E+02
   7.105  0.1700E+01  0.3108E+02
   7.115  0.1679E+01  0.3110E+02
   7.125  0.1658E+01  0.3112E+02
   7.135  0.1637E+01  0.3113E+02
   7.145  0.1615E+01  0.3115E+02
   7.155  0.1592E+01  0.3117E+02
   7.165  0.1570E+01  0.3118E+02
   7.175  0.1547E+01  0.3120E+02
   7.185  0.1542E+01  0.3121E+02
   7.195  0.1569E+01  0.3123E+02
   7.205  0.1625E+01  0.3124E+02
   7.215  0.1712E+01  0.3126E+02
   7.225  0.1830E+01  0.3128E+02
   7.235  0.1978E+01  0.3130E+02
   7.245  0.2157E+01  0.3132E+02
   7.255  0.2366E+01  0.3134E+02
   7.265  0.2852E+01  0.3137E+02
   7.275  0.2859E+01  0.3139E+02
   7.285  0.2864E+01  0.3142E+02
   7.295  0.2864E+01  0.3145E+02
   7.305  0.2862E+01  0.3148E+02
   7.315  0.2858E+01  0.3151E+02
   7.325  0.2851E+01  0.3154E+02
   7.335  0.2842E+01  0.3157E+02
   7.345  0.2830E+01  0.3159E+02
   7.355  0.2817E+01  0.3162E+02
   7.365  0.2800E+01  0.3165E+02
   7.375  0.2783E+01  0.3168E+02
   7.385  0.2777E+01  0.3171E+02
   7.395  0.2784E+01  0.3173E+02
   7.405  0.2804E+01  0.3176E+02
   7.415  0.2835E+01  0.3179E+02
   7.425  0.2869E+01  0.3182E+02
   7.435  0.2903E+01  0.3185E+02
   7.445  0.2938E+01  0.3188E+02
   7.455  0.4147E+01  0.3191E+02
   7.465  0.4298E+01  0.3195E+02
   7.475  0.4438E+01  0.3200E+02
   7.485  0.4566E+01  0.3204E+02
   7.495  0.4682E+01  0.3209E+02
   7.505  0.4787E+01  0.3214E+02
   7.515  0.4880E+01  0.3218E+02
   7.525  0.4961E+01  0.3223E+02
   7.535  0.5031E+01  0.3228E+02
   7.545  0.5089E+01  0.3233E+02
   7.555  0.5135E+01  0.3239E+02
   7.565  0.5169E+01  0.3244E+02
   7.575  0.5192E+01  0.3249E+02
   7.585  0.5204E+01  0.3254E+02
   7.595  0.5203E+01  0.3259E+02
   7.605  0.5191E+01  0.3264E+02
   7.615  0.5167E+01  0.3270E+02
   7.625  0.5132E+01  0.3275E+02
   7.635  0.5085E+01  0.3280E+02
   7.645  0.5026E+01  0.3285E+02
   7.655  0.4956E+01  0.3290E+02
   7.665  0.4874E+01  0.3295E+02
   7.675  0.4780E+01  0.3300E+02
   7.685  0.4675E+01  0.3304E+02
   7.695  0.4558E+01  0.3309E+02
   7.705  0.3684E+01  0.3313E+02
   7.715  0.3676E+01  0.3317E+02
   7.725  0.3667E+01  0.3321E+02
   7.735  0.3657E+01  0.3324E+02
   7.745  0.3647E+01  0.3328E+02
   7.755  0.3637E+01  0.3332E+02
   7.765  0.3626E+01  0.3335E+02
   7.775  0.3614E+01  0.3339E+02
   7.785  0.3602E+01  0.3342E+02
   7.795  0.3589E+01  0.3346E+02
   7.805  0.3576E+01  0.3350E+02
   7.815  0.3562E+01  0.3353E+02
   7.825  0.3548E+01  0.3357E+02
   7.835  0.3533E+01  0.3360E+02
   7.845  0.3518E+01  0.3364E+02
   7.855  0.3502E+01  0.3367E+02
   7.865  0.3485E+01  0.3371E+02
   7.875  0.3468E+01  0.3374E+02
   7.885  0.3451E+01  0.3378E+02
   7.895  0.3433E+01  0.3381E+02
   7.905  0.3415E+01  0.3385E+02
   7.915  0.3396E+01  0.3388E+02
   7.925  0.3376E+01  0.3391E+02
   7.935  0.3356E+01  0.3395E+02
   7.945  0.3335E+01  0.3398E+02
   7.955  0.3314E+01  0.3401E+02
   7.965  0.3292E+01  0.3405E+02
   7.975  0.3270E+01  0.3408E+02
   7.985  0.3247E+01  0.3411E+02
   7.995  0.3224E+01  0.3415E+02
   8.005  0.3200E+01  0.3418E+02
   8.015  0.3176E+01  0.3421E+02
   8.025  0.3151E+01  0.3424E+02
   8.035  0.3126E+01  0.3427E+02
   8.045  0.3099E+01  0.3430E+02
   8.055  0.3071E+01  0.3433E+02
   8.065  0.3043E+01  0.3437E+02
   8.075  0.3015E+01  0.3440E+02
   8.085  0.2987E+01  0.3443E+02
   8.095  0.2958E+01  0.3446E+02
   8.105  0.2930E+01  0.3448E+02
   8.115  0.2902E+01  0.3451E+02
   8.125  0.2873E+01  0.3454E+02
   8.135  0.2844E+01  0.3457E+02
   8.145  0.2816E+01  0.3460E+02
   8.155  0.2787E+01  0.3463E+02
   8.165  0.2758E+01  0.3466E+02
   8.175  0.2729E+01  0.3468E+02
   8.185  0.2700E+01  0.3471E+02
   8.195  0.2671E+01  0.3474E+02
   8.205  0.2642E+01  0.3476E+02
   8.215  0.2613E+01  0.3479E+02
   8.225  0.2583E+01  0.3482E+02
   8.235  0.2554E+01  0.3484E+02
   8.245  0.2525E+01  0.3487E+02
   8.255  0.2495E+01  0.3489E+02
   8.265  0.2466E+01  0.3492E+02
   8.275  0.2436E+01  0.3494E+02
   8.285  0.2406E+01  0.3497E+02
   8.295  0.2376E+01  0.3499E+02
   8.305  0.2346E+01  0.3501E+02
   8.315  0.2317E+01  0.3504E+02
   8.325  0.2287E+01  0.3506E+02
   8.335  0.2257E+01  0.3508E+02
   8.345  0.2228E+01  0.3510E+02
   8.355  0.2198E+01  0.3513E+02
   8.365  0.2169E+01  0.3515E+02
   8.375  0.2140E+01  0.3517E+02
   8.385  0.2111E+01  0.3519E+02
   8.395  0.2082E+01  0.3521E+02
   8.405  0.2054E+01  0.3523E+02
   8.415  0.2025E+01  0.3525E+02
   8.425  0.1997E+01  0.3527E+02
   8.435  0.1969E+01  0.3529E+02
   8.445  0.1941E+01  0.3531E+02
   8.455  0.1913E+01  0.3533E+02
   8.465  0.1886E+01  0.3535E+02
   8.475  0.1858E+01  0.3537E+02
   8.485  0.1831E+01  0.3539E+02
   8.495  0.1804E+01  0.3541E+02
   8.505  0.1777E+01  0.3542E+02
   8.515  0.1750E+01  0.3544E+02
   8.525  0.1723E+01  0.3546E+02
   8.535  0.1697E+01  0.3548E+02
   8.545  0.1670E+01  0.3549E+02
   8.555  0.1644E+01  0.3551E+02
   8.565  0.1618E+01  0.3553E+02
   8.575  0.1592E+01  0.3554E+02
   8.585  0.1567E+01  0.3556E+02
   8.595  0.1541E+01  0.3557E+02
   8.605  0.1516E+01  0.3559E+02
   8.615  0.1489E+01  0.3560E+02
   8.625  0.1460E+01  0.3562E+02
   8.635  0.1431E+01  0.3563E+02
   8.645  0.1402E+01  0.3565E+02
   8.655  0.1374E+01  0.3566E+02
   8.665  0.1345E+01  0.3567E+02
   8.675  0.1316E+01  0.3569E+02
   8.685  0.1287E+01  0.3570E+02
   8.695  0.1259E+01  0.3571E+02
   8.705  0.1230E+01  0.3573E+02
   8.715  0.1201E+01  0.3574E+02
   8.725  0.1173E+01  0.3575E+02
   8.735  0.1144E+01  0.3576E+02
   8.745  0.1116E+01  0.3577E+02
   8.755  0.1087E+01  0.3578E+02
   8.765  0.1059E+01  0.3579E+02
   8.775  0.1030E+01  0.3580E+02
   8.785  0.1011E+01  0.3582E+02
   8.795  0.1009E+01  0.3583E+02
   8.805  0.1025E+01  0.3584E+02
   8.815  0.9829E+00  0.3585E+02
   8.825  0.9416E+00  0.3586E+02
   8.835  0.9013E+00  0.3586E+02
   8.845  0.8618E+00  0.3587E+02
   8.855  0.8232E+00  0.3588E+02
   8.865  0.7855E+00  0.3589E+02
   8.875  0.7487E+00  0.3590E+02
   8.885  0.7128E+00  0.3590E+02
   8.895  0.6777E+00  0.3591E+02
   8.905  0.6436E+00  0.3592E+02
   8.915  0.6103E+00  0.3592E+02
   8.925  0.5779E+00  0.3593E+02
   8.935  0.5464E+00  0.3594E+02
   8.945  0.5157E+00  0.3594E+02
   8.955  0.4860E+00  0.3595E+02
   8.965  0.4571E+00  0.3595E+02
   8.975  0.4292E+00  0.3596E+02
   8.985  0.4021E+00  0.3596E+02
   8.995  0.3758E+00  0.3596E+02
   9.005  0.3505E+00  0.3597E+02
   9.015  0.3261E+00  0.3597E+02
   9.025  0.3025E+00  0.3597E+02
   9.035  0.2798E+00  0.3598E+02
   9.045  0.2581E+00  0.3598E+02
   9.055  0.2371E+00  0.3598E+02
   9.065  0.2171E+00  0.3598E+02
   9.075  0.1980E+00  0.3599E+02
   9.085  0.1797E+00  0.3599E+02
   9.095  0.1624E+00  0.3599E+02
   9.105  0.1459E+00  0.3599E+02
   9.115  0.1303E+00  0.3599E+02
   9.125  0.1155E+00  0.3599E+02
   9.135  0.1017E+00  0.3599E+02
   9.145  0.8875E-01  0.3600E+02
   9.155  0.7668E-01  0.3600E+02
   9.165  0.6550E-01  0.3600E+02
   9.175  0.5519E-01  0.3600E+02
   9.185  0.4578E-01  0.3600E+02
   9.195  0.3724E-01  0.3600E+02
   9.205  0.2959E-01  0.3600E+02
   9.215  0.2283E-01  0.3600E+02
   9.225  0.1695E-01  0.3600E+02
   9.235  0.1195E-01  0.3600E+02
   9.245  0.7835E-02  0.3600E+02
   9.255  0.4605E-02  0.3600E+02
   9.265  0.2250E-02  0.3600E+02
   9.275  0.7311E-03  0.3600E+02
   9.285  0.4421E-04  0.3600E+02
   9.295  0.0000E+00  0.3600E+02
   9.305  0.0000E+00  0.3600E+02
   9.315  0.0000E+00  0.3600E+02
   9.325  0.0000E+00  0.3600E+02
   9.335  0.0000E+00  0.3600E+02
   9.345  0.0000E+00  0.3600E+02
   9.355  0.0000E+00  0.3600E+02
   9.365  0.0000E+00  0.3600E+02
   9.375  0.0000E+00  0.3600E+02
   9.385  0.0000E+00  0.3600E+02
   9.395  0.0000E+00  0.3600E+02
   9.405  0.0000E+00  0.3600E+02
   9.415  0.0000E+00  0.3600E+02
   9.425  0.0000E+00  0.3600E+02
   9.435  0.0000E+00  0.3600E+02
   9.445  0.0000E+00  0.3600E+02
   9.455  0.0000E+00  0.3600E+02
   9.465  0.0000E+00  0.3600E+02
   9.475  0.0000E+00  0.3600E+02
   9.485  0.0000E+00  0.3600E+02
   9.495  0.0000E+00  0.3600E+02
   9.505  0.0000E+00  0.3600E+02
   9.515  0.0000E+00  0.3600E+02
   9.525  0.0000E+00  0.3600E+02
   9.535  0.0000E+00  0.3600E+02
   9.545  0.0000E+00  0.3600E+02
   9.555  0.0000E+00  0.3600E+02
   9.565  0.0000E+00  0.3600E+02
   9.575  0.0000E+00  0.3600E+02
   9.585  0.0000E+00  0.3600E+02
   9.595  0.0000E+00  0.3600E+02
   9.605  0.0000E+00  0.3600E+02
   9.615  0.0000E+00  0.3600E+02
   9.625  0.0000E+00  0.3600E+02
   9.635  0.0000E+00  0.3600E+02
   9.645  0.0000E+00  0.3600E+02
   9.655  0.0000E+00  0.3600E+02
   9.665  0.0000E+00  0.3600E+02
   9.675  0.0000E+00  0.3600E+02
   9.685  0.0000E+00  0.3600E+02
   9.695  0.0000E+00  0.3600E+02
   9.705  0.0000E+00  0.3600E+02
   9.715  0.0000E+00  0.3600E+02
   9.725  0.0000E+00  0.3600E+02
   9.735  0.0000E+00  0.3600E+02
   9.745  0.0000E+00  0.3600E+02
   9.755  0.0000E+00  0.3600E+02
   9.765  0.0000E+00  0.3600E+02
   9.775  0.0000E+00  0.3600E+02
   9.785  0.0000E+00  0.3600E+02
   9.795  0.0000E+00  0.3600E+02
   9.805  0.0000E+00  0.3600E+02
   9.815  0.0000E+00  0.3600E+02
   9.825  0.0000E+00  0.3600E+02
   9.835  0.0000E+00  0.3600E+02
   9.845  0.0000E+00  0.3600E+02
   9.855  0.0000E+00  0.3600E+02
   9.865  0.0000E+00  0.3600E+02
   9.875  0.0000E+00  0.3600E+02
   9.885  0.0000E+00  0.3600E+02
   9.895  0.0000E+00  0.3600E+02
   9.905  0.0000E+00  0.3600E+02
   9.915  0.0000E+00  0.3600E+02
   9.925  0.0000E+00  0.3600E+02
   9.935  0.0000E+00  0.3600E+02
   9.945  0.0000E+00  0.3600E+02
   9.955  0.0000E+00  0.3600E+02
   9.965  0.0000E+00  0.3600E+02
   9.975  0.0000E+00  0.3600E+02
   9.985  0.0000E+00  0.3600E+02
   9.995  0.0000E+00  0.3600E+02
  10.005  0.0000E+00  0.3600E+02
  10.015  0.0000E+00  0.3600E+02
  10.025  0.0000E+00  0.3600E+02
  10.035  0.0000E+00  0.3600E+02
  10.045  0.0000E+00  0.3600E+02
  10.055  0.0000E+00  0.3600E+02
  10.065  0.0000E+00  0.3600E+02
  10.075  0.0000E+00  0.3600E+02
  10.085  0.0000E+00  0.3600E+02
  10.095  0.0000E+00  0.3600E+02
  10.105  0.0000E+00  0.3600E+02
  10.115  0.0000E+00  0.3600E+02
  10.125  0.0000E+00  0.3600E+02
  10.135  0.0000E+00  0.3600E+02
  10.145  0.0000E+00  0.3600E+02
  10.155  0.0000E+00  0.3600E+02
  10.165  0.0000E+00  0.3600E+02
  10.175  0.0000E+00  0.3600E+02
  10.185  0.0000E+00  0.3600E+02
  10.195  0.0000E+00  0.3600E+02
  10.205  0.0000E+00  0.3600E+02
  10.215  0.0000E+00  0.3600E+02
  10.225  0.0000E+00  0.3600E+02
  10.235  0.0000E+00  0.3600E+02
  10.245  0.0000E+00  0.3600E+02
  10.255  0.0000E+00  0.3600E+02
  10.265  0.0000E+00  0.3600E+02
  10.275  0.0000E+00  0.3600E+02
  10.285  0.0000E+00  0.3600E+02
  10.295  0.0000E+00  0.3600E+02
  10.305  0.0000E+00  0.3600E+02
  10.315  0.0000E+00  0.3600E+02
  10.325  0.0000E+00  0.3600E+02
  10.335  0.0000E+00  0.3600E+02
  10.345  0.0000E+00  0.3600E+02
  10.355  0.0000E+00  0.3600E+02
  10.365  0.0000E+00  0.3600E+02
  10.375  0.0000E+00  0.3600E+02
  10.385  0.0000E+00  0.3600E+02
  10.395  0.0000E+00  0.3600E+02
  10.405  0.0000E+00  0.3600E+02
  10.415  0.0000E+00  0.3600E+02
  10.425  0.0000E+00  0.3600E+02
  10.435  0.0000E+00  0.3600E+02
  10.445  0.0000E+00  0.3600E+02
  10.455  0.0000E+00  0.3600E+02
  10.465  0.0000E+00  0.3600E+02
  10.475  0.0000E+00  0.3600E+02
  10.485  0.0000E+00  0.3600E+02
  10.495  0.0000E+00  0.3600E+02
  10.505  0.0000E+00  0.3600E+02
  10.515  0.0000E+00  0.3600E+02
  10.525  0.0000E+00  0.3600E+02
  10.535  0.0000E+00  0.3600E+02
  10.545  0.0000E+00  0.3600E+02
  10.555  0.0000E+00  0.3600E+02
  10.565  0.0000E+00  0.3600E+02
  10.575  0.0000E+00  0.3600E+02
  10.585  0.0000E+00  0.3600E+02
  10.595  0.0000E+00  0.3600E+02
  10.605  0.0000E+00  0.3600E+02
  10.615  0.0000E+00  0.3600E+02
  10.625  0.0000E+00  0.3600E+02
  10.635  0.0000E+00  0.3600E+02
  10.645  0.0000E+00  0.3600E+02
  10.655  0.0000E+00  0.3600E+02
  10.665  0.0000E+00  0.3600E+02
  10.675  0.0000E+00  0.3600E+02
  10.685  0.0000E+00  0.3600E+02
  10.695  0.0000E+00  0.3600E+02
  10.705  0.0000E+00  0.3600E+02
  10.715  0.0000E+00  0.3600E+02
  10.725  0.0000E+00  0.3600E+02
  10.735  0.0000E+00  0.3600E+02
  10.745  0.0000E+00  0.3600E+02
  10.755  0.0000E+00  0.3600E+02
  10.765  0.0000E+00  0.3600E+02
  10.775  0.0000E+00  0.3600E+02
  10.785  0.0000E+00  0.3600E+02
  10.795  0.0000E+00  0.3600E+02
  10.805  0.0000E+00  0.3600E+02
  10.815  0.0000E+00  0.3600E+02
  10.825  0.0000E+00  0.3600E+02
  10.835  0.0000E+00  0.3600E+02
  10.845  0.0000E+00  0.3600E+02
  10.855  0.0000E+00  0.3600E+02
  10.865  0.0000E+00  0.3600E+02
  10.875  0.0000E+00  0.3600E+02
  10.885  0.0000E+00  0.3600E+02
  10.895  0.0000E+00  0.3600E+02
  10.905  0.0000E+00  0.3600E+02
  10.915  0.0000E+00  0.3600E+02
  10.925  0.0000E+00  0.3600E+02
  10.935  0.0000E+00  0.3600E+02
  10.945  0.0000E+00  0.3600E+02
  10.955  0.0000E+00  0.3600E+02
  10.965  0.0000E+00  0.3600E+02
  10.975  0.0000E+00  0.3600E+02
  10.985  0.0000E+00  0.3600E+02
  10.995  0.0000E+00  0.3600E+02
  11.005  0.0000E+00  0.3600E+02
  11.015  0.0000E+00  0.3600E+02
  11.025  0.0000E+00  0.3600E+02
  11.035  0.0000E+00  0.3600E+02
  11.045  0.0000E+00  0.3600E+02
  11.055  0.3580E-05  0.3600E+02
  11.065  0.1479E-04  0.3600E+02
  11.075  0.3363E-04  0.3600E+02
  11.085  0.6010E-04  0.3600E+02
  11.095  0.9421E-04  0.3600E+02
  11.105  0.1359E-03  0.3600E+02
  11.115  0.1853E-03  0.3600E+02
  11.125  0.2423E-03  0.3600E+02
  11.135  0.3070E-03  0.3600E+02
  11.145  0.3792E-03  0.3600E+02
  11.155  0.4591E-03  0.3600E+02
  11.165  0.5467E-03  0.3600E+02
  11.175  0.6418E-03  0.3600E+02
  11.185  0.7446E-03  0.3600E+02
  11.195  0.8551E-03  0.3600E+02
  11.205  0.9731E-03  0.3600E+02
  11.215  0.1099E-02  0.3600E+02
  11.225  0.1232E-02  0.3600E+02
  11.235  0.1373E-02  0.3600E+02
  11.245  0.1522E-02  0.3600E+02
  11.255  0.1678E-02  0.3600E+02
  11.265  0.1842E-02  0.3600E+02
  11.275  0.2013E-02  0.3600E+02
  11.285  0.2192E-02  0.3600E+02
  11.295  0.2379E-02  0.3600E+02
  11.305  0.2574E-02  0.3600E+02
  11.315  0.2776E-02  0.3600E+02
  11.325  0.2985E-02  0.3600E+02
  11.335  0.3202E-02  0.3600E+02
  11.345  0.3427E-02  0.3600E+02
  11.355  0.3660E-02  0.3600E+02
  11.365  0.3900E-02  0.3600E+02
  11.375  0.4148E-02  0.3600E+02
  11.385  0.4403E-02  0.3600E+02
  11.395  0.4666E-02  0.3600E+02
  11.405  0.4937E-02  0.3600E+02
  11.415  0.5216E-02  0.3600E+02
  11.425  0.5502E-02  0.3600E+02
  11.435  0.5795E-02  0.3600E+02
  11.445  0.6096E-02  0.3600E+02
  11.455  0.6405E-02  0.3600E+02
  11.465  0.6722E-02  0.3600E+02
  11.475  0.7046E-02  0.3600E+02
  11.485  0.7378E-02  0.3600E+02
  11.495  0.7717E-02  0.3600E+02
  11.505  0.8064E-02  0.3600E+02
  11.515  0.8419E-02  0.3600E+02
  11.525  0.8781E-02  0.3600E+02
  11.535  0.9151E-02  0.3600E+02
  11.545  0.9529E-02  0.3600E+02
  11.555  0.9914E-02  0.3600E+02
  11.565  0.1031E-01  0.3600E+02
  11.575  0.1071E-01  0.3600E+02
  11.585  0.1112E-01  0.3600E+02
  11.595  0.1153E-01  0.3600E+02
  11.605  0.1195E-01  0.3600E+02
  11.615  0.1239E-01  0.3600E+02
  11.625  0.1282E-01  0.3600E+02
  11.635  0.1327E-01  0.3600E+02
  11.645  0.1372E-01  0.3600E+02
  11.655  0.1419E-01  0.3600E+02
  11.665  0.1465E-01  0.3600E+02
  11.675  0.1513E-01  0.3600E+02
  11.685  0.1562E-01  0.3600E+02
  11.695  0.1611E-01  0.3600E+02
  11.705  0.1661E-01  0.3600E+02
  11.715  0.1711E-01  0.3600E+02
  11.725  0.1763E-01  0.3600E+02
  11.735  0.1815E-01  0.3600E+02
  11.745  0.1868E-01  0.3600E+02
  11.755  0.1922E-01  0.3600E+02
  11.765  0.1977E-01  0.3600E+02
  11.775  0.2032E-01  0.3600E+02
  11.785  0.2088E-01  0.3601E+02
  11.795  0.2145E-01  0.3601E+02
  11.805  0.2202E-01  0.3601E+02
  11.815  0.2261E-01  0.3601E+02
  11.825  0.2320E-01  0.3601E+02
  11.835  0.2380E-01  0.3601E+02
  11.845  0.2440E-01  0.3601E+02
  11.855  0.2502E-01  0.3601E+02
  11.865  0.2564E-01  0.3601E+02
  11.875  0.2627E-01  0.3601E+02
  11.885  0.2691E-01  0.3601E+02
  11.895  0.2755E-01  0.3601E+02
  11.905  0.2820E-01  0.3601E+02
  11.915  0.2886E-01  0.3601E+02
  11.925  0.2953E-01  0.3601E+02
  11.935  0.3021E-01  0.3601E+02
  11.945  0.3089E-01  0.3601E+02
  11.955  0.3158E-01  0.3601E+02
  11.965  0.3228E-01  0.3601E+02
  11.975  0.3298E-01  0.3601E+02
  11.985  0.3370E-01  0.3601E+02
  11.995  0.3442E-01  0.3601E+02
  12.005  0.3515E-01  0.3601E+02
  12.015  0.3588E-01  0.3601E+02
  12.025  0.3663E-01  0.3601E+02
  12.035  0.3738E-01  0.3601E+02
  12.045  0.3814E-01  0.3601E+02
  12.055  0.3891E-01  0.3601E+02
  12.065  0.3968E-01  0.3601E+02
  12.075  0.4046E-01  0.3601E+02
  12.085  0.4125E-01  0.3601E+02
  12.095  0.4205E-01  0.3601E+02
  12.105  0.4285E-01  0.3602E+02
  12.115  0.4367E-01  0.3602E+02
  12.125  0.4449E-01  0.3602E+02
  12.135  0.4531E-01  0.3602E+02
  12.145  0.4615E-01  0.3602E+02
  12.155  0.4699E-01  0.3602E+02
  12.165  0.4784E-01  0.3602E+02
  12.175  0.4870E-01  0.3602E+02
  12.185  0.4957E-01  0.3602E+02
  12.195  0.5044E-01  0.3602E+02
  12.205  0.5132E-01  0.3602E+02
  12.215  0.5221E-01  0.3602E+02
  12.225  0.5311E-01  0.3602E+02
  12.235  0.5401E-01  0.3602E+02
  12.245  0.5492E-01  0.3602E+02
  12.255  0.5584E-01  0.3602E+02
  12.265  0.5677E-01  0.3602E+02
  12.275  0.5771E-01  0.3602E+02
  12.285  0.5865E-01  0.3602E+02
  12.295  0.5960E-01  0.3602E+02
  12.305  0.6056E-01  0.3603E+02
  12.315  0.6152E-01  0.3603E+02
  12.325  0.6249E-01  0.3603E+02
  12.335  0.6347E-01  0.3603E+02
  12.345  0.6446E-01  0.3603E+02
  12.355  0.6546E-01  0.3603E+02
  12.365  0.6646E-01  0.3603E+02
  12.375  0.6747E-01  0.3603E+02
  12.385  0.6849E-01  0.3603E+02
  12.395  0.6952E-01  0.3603E+02
  12.405  0.7055E-01  0.3603E+02
  12.415  0.7159E-01  0.3603E+02
  12.425  0.7264E-01  0.3603E+02
  12.435  0.7370E-01  0.3603E+02
  12.445  0.7476E-01  0.3603E+02
  12.455  0.7584E-01  0.3604E+02
  12.465  0.7692E-01  0.3604E+02
  12.475  0.7800E-01  0.3604E+02
  12.485  0.7910E-01  0.3604E+02
  12.495  0.8020E-01  0.3604E+02
  12.505  0.8131E-01  0.3604E+02
  12.515  0.8243E-01  0.3604E+02
  12.525  0.8356E-01  0.3604E+02
  12.535  0.8469E-01  0.3604E+02
  12.545  0.8583E-01  0.3604E+02
  12.555  0.8698E-01  0.3604E+02
  12.565  0.8813E-01  0.3604E+02
  12.575  0.8930E-01  0.3605E+02
  12.585  0.9047E-01  0.3605E+02
  12.595  0.9165E-01  0.3605E+02
  12.605  0.9283E-01  0.3605E+02
  12.615  0.9403E-01  0.3605E+02
  12.625  0.9523E-01  0.3605E+02
  12.635  0.9644E-01  0.3605E+02
  12.645  0.9766E-01  0.3605E+02
  12.655  0.9888E-01  0.3605E+02
  12.665  0.1001E+00  0.3605E+02
  12.675  0.1014E+00  0.3606E+02
  12.685  0.1026E+00  0.3606E+02
  12.695  0.1039E+00  0.3606E+02
  12.705  0.1051E+00  0.3606E+02
  12.715  0.1064E+00  0.3606E+02
  12.725  0.1077E+00  0.3606E+02
  12.735  0.1090E+00  0.3606E+02
  12.745  0.1102E+00  0.3606E+02
  12.755  0.1115E+00  0.3606E+02
  12.765  0.1129E+00  0.3606E+02
  12.775  0.1142E+00  0.3607E+02
  12.785  0.1155E+00  0.3607E+02
  12.795  0.1168E+00  0.3607E+02
  12.805  0.1182E+00  0.3607E+02
  12.815  0.1195E+00  0.3607E+02
  12.825  0.1209E+00  0.3607E+02
  12.835  0.1222E+00  0.3607E+02
  12.845  0.1236E+00  0.3607E+02
  12.855  0.1250E+00  0.3608E+02
  12.865  0.1264E+00  0.3608E+02
  12.875  0.1278E+00  0.3608E+02
  12.885  0.1292E+00  0.3608E+02
  12.895  0.1306E+00  0.3608E+02
  12.905  0.1320E+00  0.3608E+02
  12.915  0.1334E+00  0.3608E+02
  12.925  0.1348E+00  0.3608E+02
  12.935  0.1363E+00  0.3609E+02
  12.945  0.1377E+00  0.3609E+02
  12.955  0.1392E+00  0.3609E+02
  12.965  0.1406E+00  0.3609E+02
  12.975  0.1421E+00  0.3609E+02
  12.985  0.1436E+00  0.3609E+02
  12.995  0.1451E+00  0.3609E+02
  13.005  0.1466E+00  0.3610E+02
  13.015  0.1481E+00  0.3610E+02
  13.025  0.1496E+00  0.3610E+02
  13.035  0.1511E+00  0.3610E+02
  13.045  0.1526E+00  0.3610E+02
  13.055  0.1541E+00  0.3610E+02
  13.065  0.1557E+00  0.3610E+02
  13.075  0.1572E+00  0.3611E+02
  13.085  0.1588E+00  0.3611E+02
  13.095  0.1603E+00  0.3611E+02
  13.105  0.1619E+00  0.3611E+02
  13.115  0.1635E+00  0.3611E+02
  13.125  0.1651E+00  0.3611E+02
  13.135  0.1666E+00  0.3612E+02
  13.145  0.1682E+00  0.3612E+02
  13.155  0.1699E+00  0.3612E+02
  13.165  0.1715E+00  0.3612E+02
  13.175  0.1731E+00  0.3612E+02
  13.185  0.1747E+00  0.3612E+02
  13.195  0.1764E+00  0.3613E+02
  13.205  0.1780E+00  0.3613E+02
  13.215  0.1797E+00  0.3613E+02
  13.225  0.1813E+00  0.3613E+02
  13.235  0.1830E+00  0.3613E+02
  13.245  0.1847E+00  0.3614E+02
  13.255  0.1863E+00  0.3614E+02
  13.265  0.1880E+00  0.3614E+02
  13.275  0.1897E+00  0.3614E+02
  13.285  0.1914E+00  0.3614E+02
  13.295  0.1931E+00  0.3614E+02
  13.305  0.1949E+00  0.3615E+02
  13.315  0.1966E+00  0.3615E+02
  13.325  0.1983E+00  0.3615E+02
  13.335  0.2001E+00  0.3615E+02
  13.345  0.2018E+00  0.3615E+02
  13.355  0.2036E+00  0.3616E+02
  13.365  0.2053E+00  0.3616E+02
  13.375  0.2071E+00  0.3616E+02
  13.385  0.2089E+00  0.3616E+02
  13.395  0.2107E+00  0.3617E+02
  13.405  0.2198E+00  0.3617E+02
  13.415  0.2425E+00  0.3617E+02
  13.425  0.2784E+00  0.3617E+02
  13.435  0.3071E+00  0.3618E+02
  13.445  0.3182E+00  0.3618E+02
  13.455  0.3296E+00  0.3618E+02
  13.465  0.3415E+00  0.3618E+02
  13.475  0.3538E+00  0.3619E+02
  13.485  0.3666E+00  0.3619E+02
  13.495  0.3798E+00  0.3620E+02
  13.505  0.3935E+00  0.3620E+02
  13.515  0.4076E+00  0.3620E+02
  13.525  0.4221E+00  0.3621E+02
  13.535  0.4371E+00  0.3621E+02
  13.545  0.4525E+00  0.3622E+02
  13.555  0.4683E+00  0.3622E+02
  13.565  0.4846E+00  0.3623E+02
  13.575  0.5013E+00  0.3623E+02
  13.585  0.5185E+00  0.3624E+02
  13.595  0.5360E+00  0.3624E+02
  13.605  0.5541E+00  0.3625E+02
  13.615  0.5726E+00  0.3625E+02
  13.625  0.5915E+00  0.3626E+02
  13.635  0.6108E+00  0.3626E+02
  13.645  0.6306E+00  0.3627E+02
  13.655  0.6508E+00  0.3628E+02
  13.665  0.6712E+00  0.3628E+02
  13.675  0.6917E+00  0.3629E+02
  13.685  0.7124E+00  0.3630E+02
  13.695  0.7332E+00  0.3630E+02
  13.705  0.7541E+00  0.3631E+02
  13.715  0.7751E+00  0.3632E+02
  13.725  0.7963E+00  0.3633E+02
  13.735  0.8177E+00  0.3634E+02
  13.745  0.8391E+00  0.3634E+02
  13.755  0.8607E+00  0.3635E+02
  13.765  0.8824E+00  0.3636E+02
  13.775  0.9043E+00  0.3637E+02
  13.785  0.9263E+00  0.3638E+02
  13.795  0.9484E+00  0.3639E+02
  13.805  0.9707E+00  0.3640E+02
  13.815  0.9931E+00  0.3641E+02
  13.825  0.1016E+01  0.3642E+02
  13.835  0.1038E+01  0.3643E+02
  13.845  0.1061E+01  0.3644E+02
  13.855  0.1084E+01  0.3645E+02
  13.865  0.1107E+01  0.3646E+02
  13.875  0.1130E+01  0.3647E+02
  13.885  0.1154E+01  0.3648E+02
  13.895  0.1177E+01  0.3649E+02
  13.905  0.1201E+01  0.3651E+02
  13.915  0.1224E+01  0.3652E+02
  13.925  0.1248E+01  0.3653E+02
  13.935  0.1272E+01  0.3654E+02
  13.945  0.1297E+01  0.3656E+02
  13.955  0.1321E+01  0.3657E+02
  13.965  0.1345E+01  0.3658E+02
  13.975  0.1370E+01  0.3660E+02
  13.985  0.1394E+01  0.3661E+02
  13.995  0.1419E+01  0.3662E+02
  14.005  0.1444E+01  0.3664E+02
  14.015  0.1469E+01  0.3665E+02
  14.025  0.1495E+01  0.3667E+02
  14.035  0.1520E+01  0.3668E+02
  14.045  0.1545E+01  0.3670E+02
  14.055  0.1571E+01  0.3671E+02
  14.065  0.1597E+01  0.3673E+02
  14.075  0.1623E+01  0.3675E+02
  14.085  0.1649E+01  0.3676E+02
  14.095  0.1675E+01  0.3678E+02
  14.105  0.1701E+01  0.3680E+02
  14.115  0.1728E+01  0.3681E+02
  14.125  0.1754E+01  0.3683E+02
  14.135  0.1781E+01  0.3685E+02
  14.145  0.1808E+01  0.3687E+02
  14.155  0.1835E+01  0.3688E+02
  14.165  0.1862E+01  0.3690E+02
  14.175  0.1889E+01  0.3692E+02
  14.185  0.1916E+01  0.3694E+02
  14.195  0.1944E+01  0.3696E+02
  14.205  0.1971E+01  0.3698E+02
  14.215  0.1999E+01  0.3700E+02
  14.225  0.2027E+01  0.3702E+02
  14.235  0.2055E+01  0.3704E+02
  14.245  0.2083E+01  0.3706E+02
  14.255  0.2112E+01  0.3708E+02
  14.265  0.2140E+01  0.3710E+02
  14.275  0.2169E+01  0.3712E+02
  14.285  0.2197E+01  0.3715E+02
  14.295  0.2226E+01  0.3717E+02
  14.305  0.2255E+01  0.3719E+02
  14.315  0.2284E+01  0.3721E+02
  14.325  0.2314E+01  0.3724E+02
  14.335  0.2343E+01  0.3726E+02
  14.345  0.2371E+01  0.3728E+02
  14.355  0.2398E+01  0.3731E+02
  14.365  0.2422E+01  0.3733E+02
  14.375  0.2444E+01  0.3736E+02
  14.385  0.2464E+01  0.3738E+02
  14.395  0.2482E+01  0.3740E+02
  14.405  0.2497E+01  0.3743E+02
  14.415  0.2511E+01  0.3745E+02
  14.425  0.2523E+01  0.3748E+02
  14.435  0.2538E+01  0.3750E+02
  14.445  0.2557E+01  0.3753E+02
  14.455  0.2575E+01  0.3756E+02
  14.465  0.2593E+01  0.3758E+02
  14.475  0.2611E+01  0.3761E+02
  14.485  0.2628E+01  0.3763E+02
  14.495  0.2645E+01  0.3766E+02
  14.505  0.2662E+01  0.3769E+02
  14.515  0.2678E+01  0.3771E+02
  14.525  0.2693E+01  0.3774E+02
  14.535  0.2708E+01  0.3777E+02
  14.545  0.2723E+01  0.3779E+02
  14.555  0.2737E+01  0.3782E+02
  14.565  0.2751E+01  0.3785E+02
  14.575  0.2765E+01  0.3788E+02
  14.585  0.2778E+01  0.3790E+02
  14.595  0.2791E+01  0.3793E+02
  14.605  0.2803E+01  0.3796E+02
  14.615  0.2815E+01  0.3799E+02
  14.625  0.2826E+01  0.3802E+02
  14.635  0.2837E+01  0.3804E+02
  14.645  0.2847E+01  0.3807E+02
  14.655  0.2857E+01  0.3810E+02
  14.665  0.2867E+01  0.3813E+02
  14.675  0.2876E+01  0.3816E+02
  14.685  0.2885E+01  0.3819E+02
  14.695  0.2894E+01  0.3822E+02
  14.705  0.2902E+01  0.3825E+02
  14.715  0.2909E+01  0.3828E+02
  14.725  0.2916E+01  0.3830E+02
  14.735  0.2922E+01  0.3833E+02
  14.745  0.2926E+01  0.3836E+02
  14.755  0.2930E+01  0.3839E+02
  14.765  0.2933E+01  0.3842E+02
  14.775  0.2934E+01  0.3845E+02
  14.785  0.2935E+01  0.3848E+02
  14.795  0.2934E+01  0.3851E+02
  14.805  0.2932E+01  0.3854E+02
  14.815  0.2930E+01  0.3857E+02
  14.825  0.2926E+01  0.3860E+02
  14.835  0.2921E+01  0.3863E+02
  14.845  0.2915E+01  0.3866E+02
  14.855  0.2908E+01  0.3868E+02
  14.865  0.2900E+01  0.3871E+02
  14.875  0.2891E+01  0.3874E+02
  14.885  0.2881E+01  0.3877E+02
  14.895  0.2870E+01  0.3880E+02
  14.905  0.2858E+01  0.3883E+02
  14.915  0.2845E+01  0.3886E+02
  14.925  0.2830E+01  0.3889E+02
  14.935  0.2815E+01  0.3891E+02
  14.945  0.2799E+01  0.3894E+02
  14.955  0.2781E+01  0.3897E+02
  14.965  0.2763E+01  0.3900E+02
  14.975  0.2743E+01  0.3903E+02
  14.985  0.2722E+01  0.3905E+02
  14.995  0.2701E+01  0.3908E+02
  15.005  0.2678E+01  0.3911E+02
  15.015  0.2654E+01  0.3913E+02
  15.025  0.2629E+01  0.3916E+02
  15.035  0.2603E+01  0.3919E+02
  15.045  0.2576E+01  0.3921E+02
  15.055  0.5474E+01  0.3924E+02
  15.065  0.5437E+01  0.3929E+02
  15.075  0.5222E+01  0.3935E+02
  15.085  0.5010E+01  0.3940E+02
  15.095  0.4803E+01  0.3945E+02
  15.105  0.1798E+01  0.3947E+02
  15.115  0.1765E+01  0.3949E+02
  15.125  0.1725E+01  0.3951E+02
  15.135  0.1685E+01  0.3953E+02
  15.145  0.1646E+01  0.3954E+02
  15.155  0.1607E+01  0.3956E+02
  15.165  0.1568E+01  0.3957E+02
  15.175  0.1531E+01  0.3959E+02
  15.185  0.1493E+01  0.3960E+02
  15.195  0.1456E+01  0.3962E+02
  15.205  0.1420E+01  0.3963E+02
  15.215  0.1384E+01  0.3965E+02
  15.225  0.1348E+01  0.3966E+02
  15.235  0.1313E+01  0.3967E+02
  15.245  0.1279E+01  0.3969E+02
  15.255  0.1245E+01  0.3970E+02
  15.265  0.1211E+01  0.3971E+02
  15.275  0.1178E+01  0.3972E+02
  15.285  0.1146E+01  0.3974E+02
  15.295  0.1114E+01  0.3975E+02
  15.305  0.1082E+01  0.3976E+02
  15.315  0.1051E+01  0.3977E+02
  15.325  0.1020E+01  0.3978E+02
  15.335  0.9903E+00  0.3979E+02
  15.345  0.9607E+00  0.3980E+02
  15.355  0.9316E+00  0.3981E+02
  15.365  0.9030E+00  0.3982E+02
  15.375  0.8749E+00  0.3983E+02
  15.385  0.8472E+00  0.3984E+02
  15.395  0.8201E+00  0.3984E+02
  15.405  0.7934E+00  0.3985E+02
  15.415  0.7672E+00  0.3986E+02
  15.425  0.7415E+00  0.3987E+02
  15.435  0.7163E+00  0.3987E+02
  15.445  0.6916E+00  0.3988E+02
  15.455  0.6674E+00  0.3989E+02
  15.465  0.6436E+00  0.3989E+02
  15.475  0.6204E+00  0.3990E+02
  15.485  0.5976E+00  0.3991E+02
  15.495  0.5754E+00  0.3991E+02
  15.505  0.5536E+00  0.3992E+02
  15.515  0.5323E+00  0.3992E+02
  15.525  0.5115E+00  0.3993E+02
  15.535  0.4912E+00  0.3993E+02
  15.545  0.4714E+00  0.3994E+02
  15.555  0.4521E+00  0.3994E+02
  15.565  0.4332E+00  0.3995E+02
  15.575  0.4149E+00  0.3995E+02
  15.585  0.3970E+00  0.3996E+02
  15.595  0.3796E+00  0.3996E+02
  15.605  0.3627E+00  0.3996E+02
  15.615  0.3463E+00  0.3997E+02
  15.625  0.3304E+00  0.3997E+02
  15.635  0.3150E+00  0.3997E+02
  15.645  0.3001E+00  0.3998E+02
  15.655  0.2856E+00  0.3998E+02
  15.665  0.2717E+00  0.3998E+02
  15.675  0.2582E+00  0.3999E+02
  15.685  0.2453E+00  0.3999E+02
  15.695  0.2328E+00  0.3999E+02
  15.705  0.2208E+00  0.3999E+02
  15.715  0.2093E+00  0.4000E+02
  15.725  0.1983E+00  0.4000E+02
  15.735  0.1877E+00  0.4000E+02
